File: Benchmarking/data/2022-03-10 08_39_41 GC benchmarking2_09_01_CVA_DUSB0_C01.mpt
EC-Lab ASCII FILE
Nb header lines : 91

Cyclic Voltammetry Advanced

Run on channel : 1 (SN 5836)
User :
Electrode connection : standard
Ewe ctrl range : min = -5,00 V, max = 5,00 V
Ewe,I filtering : 50 kHz
Safety Limits :
	Do not start on E overload
Channel : Floating
Acquisition started on : 03/10/2022 09:00:30
Saved on :
	File : 2022-03-10 08_39_41 GC benchmarking2_09_01_CVA_DUSB0_C01.mpr
	Directory : C:\Users\Spectro Inlets Lab_1\Desktop\Zilien Data Dir\R&D\GC New Benchmarking Procedure\2022-03-10 08_39_41 GC benchmarking2\
	Host : 192.168.1.105
Device : SP-200 (SN 0763)
Address : USB
EC-Lab for windows v11.27 (software)
Internet server v11.25 (firmware)
Command interpretor v11.27 (firmware)
Electrode material :
Initial state :
Electrolyte :
Comments :
Cable : standard
Electrode surface area : 0,001 cm²
Characteristic mass : 0,001 g
Equivalent Weight : 0,000 g/eq.
Density : 0,000 g/cm3
Record EIS quality indicators
Cycle Definition : Charge/Discharge alternance
Ei (V)              0,000
vs.                 Ref
ti (h:m:s)          0:00:10,0000
dti (s)             1,0000
dE/dt               20,000
dE/dt unit          mV/s
E1 (V)              1,800
vs.                 Ref
t1 (h:m:s)          0:00:0,0000
dt1 (s)             0,1000
Step percent        80
N                   20
E range min (V)     -5,000
E range max (V)     5,000
I Range             100 µA
I Range min         Unset
I Range max         Unset
I Range init        Unset
Bandwidth           1
E2 (V)              -0,850
vs.                 Ref
t2 (h:m:s)          0:00:0,0000
dt2 (s)             0,1000
nc cycles           4
nr                  1
Reverse Scan        0
Ef (V)              0,000
vs.                 Eoc
tf (h:m:s)          0:00:0,0000
dtf (s)             0,1000

Modify on : 03/10/2022 09:02
E1 (V)              1,850

Modify on : 03/10/2022 09:03
E2 (V)              -0,800

Modify on : 03/10/2022 09:04
E2 (V)              -0,750

Modify on : 03/10/2022 09:06
E2 (V)              -0,775

Modify on : 03/10/2022 09:09
nc cycles           5

Modify on : 03/10/2022 09:19
E2 (V)              -0,800
nc cycles           6

Modify on : 03/10/2022 09:19
E2 (V)              -0,850

Modify on : 03/10/2022 09:22
nc cycles           7

mode	ox/red	error	control changes	Ns changes	counter inc.	time/s	control/V	Ewe/V	<I>/mA	cycle number	(Q-Qo)/C	I Range	P/W
2	0	0	1	0	0	0,000000000000000E+000	6,2669656E-005	2,2934264E-004	-6,185158272273839E-004	1,000000000000000E+000	0,0000000E+000	41	-1,4185204E-010
2	1	0	1	0	0	3,850079902738798E+001	5,6975573E-001	5,7009512E-001	7,360790340612336E-004	1,000000000000000E+000	9,4250072E-006	41	4,1963506E-007
2	1	0	0	0	0	6,908569825474842E+001	1,1814523E+000	1,1817724E+000	4,423719472825320E-003	1,000000000000000E+000	8,1201928E-005	41	5,2278292E-006
2	1	0	0	0	0	9,967059748210886E+001	1,7931510E+000	1,7935828E+000	2,736181829618956E-002	1,000000000000000E+000	4,0476551E-004	41	4,9075687E-005
2	0	0	0	0	0	1,298985967184854E+002	1,2022431E+000	1,2025949E+000	-6,059873401666176E-004	1,000000000000000E+000	4,6807356E-004	41	-7,2875724E-007
2	0	0	1	0	0	1,604834959458458E+002	5,9054506E-001	5,9087044E-001	-2,053440937510989E-003	1,000000000000000E+000	4,2940580E-004	41	-1,2133175E-006
2	0	0	1	0	0	1,910683951732062E+002	-2,1152265E-002	-2,0888384E-002	-3,199306279113225E-003	1,000000000000000E+000	3,4787229E-004	41	6,6828342E-008
2	0	0	0	0	0	2,216532944005667E+002	-6,3285071E-001	-6,3258296E-001	-7,416636935640375E-003	1,000000000000000E+000	2,1363072E-004	41	4,6916380E-006
2	1	0	1	0	1	2,517102936412630E+002	-3,6598277E-001	-3,6568022E-001	-9,381696996187605E-005	1,000000000000000E+000	-1,6754103E-004	41	3,4307011E-008
2	1	0	0	0	1	2,819153928782180E+002	2,3811963E-001	2,3846033E-001	1,321469005821557E-003	2,000000000000000E+000	-1,4841753E-004	41	3,1511794E-007
2	1	0	1	0	1	3,125002921055784E+002	8,4981692E-001	8,5018665E-001	2,783835316397767E-003	2,000000000000000E+000	-7,5379219E-005	41	2,3667797E-006
2	1	0	1	0	1	3,430851913329388E+002	1,4615149E+000	1,4619114E+000	5,455895608496270E-003	2,000000000000000E+000	3,2308006E-005	41	7,9760366E-006
2	1	0	1	0	1	3,732142905718138E+002	1,6358280E+000	1,6362333E+000	1,033977933739371E-003	2,000000000000000E+000	4,2026627E-004	41	1,6918292E-006
2	0	0	1	0	1	4,037991897991742E+002	1,0241312E+000	1,0244801E+000	-9,342705327142382E-004	2,000000000000000E+000	4,0621628E-004	41	-9,5714154E-007
2	0	0	0	0	1	4,343840890265346E+002	4,1243303E-001	4,1278514E-001	-2,715729055021571E-003	2,000000000000000E+000	3,4678157E-004	41	-1,1210126E-006
2	0	0	0	0	1	4,649689882538951E+002	-1,9926441E-001	-1,9895822E-001	-3,741092694294720E-003	2,000000000000000E+000	2,4678750E-004	41	7,4432114E-007
2	0	0	0	0	0	4,950653874935961E+002	-7,4879330E-001	-7,4846560E-001	-3,047975795874525E-002	2,000000000000000E+000	-5,0520754E-005	41	2,2813050E-005
2	1	0	1	0	0	5,256502867209565E+002	-1,3709360E-001	-1,3677470E-001	4,142627658983572E-004	2,000000000000000E+000	-1,7297476E-004	41	-5,6660667E-008
2	1	0	0	0	0	5,560052859541247E+002	4,7000590E-001	4,7032389E-001	2,322922397028457E-003	3,000000000000000E+000	-1,3180713E-004	41	1,0925258E-006
2	1	0	0	0	0	5,865901851814851E+002	1,0817027E+000	1,0820581E+000	3,068053465955144E-003	3,000000000000000E+000	-4,1813109E-005	41	3,3198121E-006
2	1	0	1	0	0	6,171750844088456E+002	1,6934009E+000	1,6938311E+000	1,578460688655181E-002	3,000000000000000E+000	1,4203158E-004	41	2,6736458E-005
2	1	0	0	0	0	6,473041836477205E+002	1,4039434E+000	1,4043101E+000	-3,693780362073601E-004	3,000000000000000E+000	4,3020712E-004	41	-5,1872132E-007
2	0	0	1	0	0	6,778890828750809E+002	7,9224432E-001	7,9257822E-001	-1,564684042793751E-003	3,000000000000000E+000	4,0071926E-004	41	-1,2401345E-006
2	0	0	1	0	0	7,084739821024414E+002	1,8054807E-001	1,8087767E-001	-3,047459560579467E-003	3,000000000000000E+000	3,1878281E-004	41	-5,5121740E-007
2	0	0	0	0	0	7,390588813298018E+002	-4,3115106E-001	-4,3090424E-001	-4,885503032746125E-003	3,000000000000000E+000	2,0247616E-004	41	2,1051840E-006
2	0	0	1	0	1	7,691551805695053E+002	-5,1690763E-001	-5,1658076E-001	-9,043863133817338E-004	3,000000000000000E+000	-8,2659877E-005	41	4,6718856E-007
2	1	0	1	0	1	7,995102798026710E+002	9,0194620E-002	9,0530112E-002	1,030841486272703E-003	4,000000000000000E+000	-7,1021088E-005	41	9,3322193E-008
2	1	0	1	0	1	8,300951790300314E+002	7,0189047E-001	7,0225453E-001	3,103745506323002E-003	4,000000000000000E+000	-2,1432488E-006	41	2,1796193E-006
2	1	0	0	0	1	8,606800782573919E+002	1,3135896E+000	1,3139471E+000	3,890542353609600E-003	4,000000000000000E+000	9,8944227E-005	41	5,1119669E-006
2	1	0	1	0	1	8,908090774962693E+002	1,7837572E+000	1,7841578E+000	1,015683721513757E-002	4,000000000000000E+000	5,1828788E-004	41	1,8121400E-005
2	0	0	1	0	1	9,213939767236297E+002	1,1720580E+000	1,1724180E+000	-7,369709695878657E-004	4,000000000000000E+000	5,4091710E-004	41	-8,6403804E-007
2	0	0	0	0	1	9,519788759509902E+002	5,6036228E-001	5,6068587E-001	-2,729715423719720E-003	4,000000000000000E+000	4,9197039E-004	41	-1,5305129E-006
2	0	0	0	0	1	9,825637751783506E+002	-5,1337380E-002	-5,1045567E-002	-3,508854504175651E-003	4,000000000000000E+000	3,9409389E-004	41	1,7911147E-007
2	0	0	1	0	1	1,013148774405709E+003	-6,6303557E-001	-6,6280013E-001	-8,435720618172906E-003	4,000000000000000E+000	2,4046063E-004	41	5,5911969E-006
2	1	0	1	0	0	1,043245073645412E+003	-2,8502274E-001	-2,8472522E-001	1,937473043122731E-004	4,000000000000000E+000	1,1305550E-004	41	-5,5164744E-008
2	1	0	0	0	0	1,073600072878580E+003	3,2207662E-001	3,2240155E-001	1,951285202003678E-003	5,000000000000000E+000	1,4466154E-004	41	6,2909737E-007
2	1	0	0	0	0	1,104184972105941E+003	9,3377584E-001	9,3411708E-001	3,139871053223817E-003	5,000000000000000E+000	2,3605622E-004	41	2,9330072E-006
2	1	0	1	0	0	1,134769871333301E+003	1,5454718E+000	1,5458832E+000	8,048034504682264E-003	5,000000000000000E+000	3,6730149E-004	41	1,2441321E-005
2	1	0	0	0	0	1,164898970572176E+003	1,5518701E+000	1,5522814E+000	2,606483755480320E-004	5,000000000000000E+000	7,7122299E-004	41	4,0459963E-007
2	0	0	1	0	0	1,195483869799536E+003	9,4017351E-001	9,4051069E-001	-1,191367844458112E-003	5,000000000000000E+000	7,4993219E-004	41	-1,1204942E-006
2	0	0	1	0	0	1,226068769026897E+003	3,2847500E-001	3,2879132E-001	-3,114014347311064E-003	5,000000000000000E+000	6,7593367E-004	41	-1,0238609E-006
2	0	0	0	0	0	1,256653668254257E+003	-2,8322193E-001	-2,8292778E-001	-4,156068793425463E-003	5,000000000000000E+000	5,6538638E-004	41	1,1758673E-006
2	0	0	1	0	1	1,286701967495173E+003	-8,1576025E-001	-8,1543988E-001	-2,200172206166345E-002	5,000000000000000E+000	2,5148178E-004	41	1,7941082E-005
2	1	0	0	0	1	1,317286866722534E+003	-2,0406289E-001	-2,0375504E-001	4,323991991981909E-004	5,000000000000000E+000	1,5873105E-004	41	-8,8103512E-008
2	1	0	1	0	1	1,347591965956963E+003	4,0203860E-001	4,0235314E-001	2,622835799166571E-003	6,000000000000000E+000	2,0305715E-004	41	1,0553063E-006
2	1	0	0	0	1	1,378176865184323E+003	1,0137380E+000	1,0140918E+000	3,609909309315769E-003	6,000000000000000E+000	3,1078295E-004	41	3,6607796E-006
2	1	0	0	0	1	1,408761764411684E+003	1,6254338E+000	1,6258484E+000	1,267247516692516E-002	6,000000000000000E+000	4,8371969E-004	41	2,0603524E-005
2	1	0	1	0	1	1,438890763650561E+003	1,4719098E+000	1,4723374E+000	-1,571856869858087E-004	6,000000000000000E+000	8,6513732E-004	41	-2,3143036E-007
2	0	0	0	0	1	1,469475662877921E+003	8,6021399E-001	8,6059189E-001	-1,442596501290014E-003	6,000000000000000E+000	8,3805725E-004	41	-1,2414869E-006
2	0	0	0	0	1	1,500060562105282E+003	2,4851446E-001	2,4884230E-001	-3,304407911907227E-003	6,000000000000000E+000	7,5425854E-004	41	-8,2227643E-007
2	0	0	1	0	1	1,530645561332640E+003	-3,6318353E-001	-3,6289567E-001	-4,687487703976270E-003	6,000000000000000E+000	6,3538400E-004	41	1,7010690E-006
2	0	0	0	0	0	1,560693760573558E+003	-7,3579973E-001	-7,3548573E-001	-9,188626608464007E-003	6,000000000000000E+000	2,8986280E-004	41	6,7581036E-006
2	1	0	1	0	0	1,591278659800919E+003	-1,2410338E-001	-1,2377511E-001	5,994595600985276E-004	6,000000000000000E+000	2,6788531E-004	41	-7,4198169E-008
2	1	0	0	0	0	1,621583759035348E+003	4,8199910E-001	4,8233354E-001	3,117690189898437E-003	7,000000000000000E+000	3,2279518E-004	41	1,5037665E-006
2	1	0	1	0	0	1,652168658262708E+003	1,0936972E+000	1,0940319E+000	3,760943789777323E-003	7,000000000000000E+000	4,3640312E-004	41	4,1145927E-006
2	1	0	1	0	0	1,682753557490068E+003	1,7053945E+000	1,7058165E+000	1,960636618886191E-002	7,000000000000000E+000	6,6322123E-004	41	3,3444863E-005
2	0	0	1	0	0	1,712882656728943E+003	1,3919479E+000	1,3923426E+000	-3,950465867079500E-004	7,000000000000000E+000	9,8939368E-004	41	-5,5004017E-007
2	0	0	1	0	0	1,743467555956304E+003	7,8025168E-001	7,8060144E-001	-1,782442197982168E-003	7,000000000000000E+000	9,5641718E-004	41	-1,3913769E-006
2	0	0	0	0	0	1,774052455183664E+003	1,6855274E-001	1,6886060E-001	-3,464067494896639E-003	7,000000000000000E+000	8,6340605E-004	41	-5,8494453E-007
2	0	0	0	0	0	1,804637354411025E+003	-4,4314408E-001	-4,4288954E-001	-5,456983683152880E-003	7,000000000000000E+000	7,3495577E-004	41	2,4168410E-006
2	0	0	0	0	1	1,834685653651941E+003	-6,5583766E-001	-6,5556133E-001	-2,524925832899460E-003	7,000000000000000E+000	3,9582906E-004	41	1,6552438E-006
2	1	0	0	0	1	1,865270552879301E+003	-4,4140924E-002	-4,3863922E-002	8,381592700979178E-004	7,000000000000000E+000	3,9996501E-004	41	-3,6764952E-008
2	1	0	1	0	1	1,895575552113733E+003	5,6195956E-001	5,6232750E-001	3,536613481500958E-003	8,000000000000000E+000	4,6674404E-004	41	1,9887350E-006
2	1	0	0	0	1	1,926160451341093E+003	1,1736567E+000	1,1740186E+000	3,992215413260197E-003	8,000000000000000E+000	5,8540981E-004	41	4,6869354E-006
2	1	0	0	0	1	1,956745350568453E+003	1,7853547E+000	1,7857976E+000	3,100094860194980E-002	8,000000000000000E+000	9,0184348E-004	41	5,5361419E-005
2	0	0	0	0	1	1,986874449807328E+003	1,3119886E+000	1,3123873E+000	-5,562361773747346E-004	8,000000000000000E+000	1,1336169E-003	41	-7,2999734E-007
2	0	0	0	0	1	2,017459349034689E+003	7,0029128E-001	7,0064461E-001	-2,270784645633846E-003	8,000000000000000E+000	1,0938065E-003	41	-1,5910131E-006
2	0	0	1	0	1	2,048044248262049E+003	8,8593513E-002	8,8913061E-002	-3,634789641236147E-003	8,000000000000000E+000	9,9266565E-004	41	-3,2318027E-007
2	0	0	1	0	1	2,078629147489410E+003	-5,2310461E-001	-5,2279830E-001	-6,432554589736600E-003	8,000000000000000E+000	8,5197168E-004	41	3,3629285E-006
2	0	0	0	0	1	2,094969147076627E+003	-8,5004306E-001	-8,4970462E-001	-3,222008794546127E-002	8,000000000000000E+000	6,4908690E-004	41	2,7377559E-005