File: Benchmarking/data/2022-01-31 11_11_16 test benchmarking 3_01_01_CVA_DUSB0_C01.mpt
EC-Lab ASCII FILE
Nb header lines : 66

Cyclic Voltammetry Advanced

Run on channel : 1 (SN 5836)
User :
Electrode connection : standard
Ewe ctrl range : min = -5,00 V, max = 5,00 V
Ewe,I filtering : 50 kHz
Safety Limits :
	Do not start on E overload
Channel : Grounded
Acquisition started on : 01/31/2022 11:19:17
Saved on :
	File : 2022-01-31 11_11_16 test benchmarking 3_01_01_CVA_DUSB0_C01.mpr
	Directory : C:\Users\Spectro Inlets Lab_1\Dropbox (Spectro Inlets)\Development\Data\New Benchmarking Procedure\2022-01-31 11_11_16 test benchmarking 3\
	Host : 192.168.1.105
Device : SP-200 (SN 0763)
Address : USB
EC-Lab for windows v11.27 (software)
Internet server v11.25 (firmware)
Command interpretor v11.27 (firmware)
Electrode material :
Initial state :
Electrolyte :
Comments :
Cable : standard
Electrode surface area : 0,001 cm²
Characteristic mass : 0,001 g
Equivalent Weight : 0,000 g/eq.
Density : 0,000 g/cm3
Record Ece
Cycle Definition : Charge/Discharge alternance
Ei (V)              0,000
vs.                 Eoc
ti (h:m:s)          0:00:10,0000
dti (s)             1,0000
dE/dt               20,000
dE/dt unit          mV/s
E1 (V)              1,700
vs.                 Ref
t1 (h:m:s)          0:00:0,0000
dt1 (s)             0,1000
Step percent        80
N                   20
E range min (V)     -5,000
E range max (V)     5,000
I Range             100 µA
I Range min         Unset
I Range max         Unset
I Range init        Unset
Bandwidth           1
E2 (V)              0,005
vs.                 Ref
t2 (h:m:s)          0:00:0,0000
dt2 (s)             0,1000
nc cycles           4
nr                  1
Reverse Scan        0
Ef (V)              0,000
vs.                 Eoc
tf (h:m:s)          0:00:0,0000
dtf (s)             0,1000

mode	ox/red	error	control changes	Ns changes	counter inc.	time/s	control/V	Ewe/V	<I>/mA	cycle number	(Q-Qo)/C	I Range	<Ece>/V	P/W	Ewe-Ece/V
2	1	1	0	1	0	0,000000000000000E+000	9,3164051E-001	9,3294942E-001	1,049653801601380E-004	1,000000000000000E+000	0,0000000E+000	41	1,2230860E+000	9,7927391E-008	-2,9013658E-001
2	1	0	0	0	0	2,210879944148473E+001	1,1736181E+000	1,1749479E+000	4,369174152982370E-003	1,000000000000000E+000	2,3850431E-005	41	1,0081115E+000	5,1335519E-006	1,6683638E-001
2	1	0	1	0	0	3,630169908294192E+001	1,4574766E+000	1,4588386E+000	8,683448513341588E-003	1,000000000000000E+000	1,2447783E-004	41	7,5072604E-001	1,2667750E-005	7,0811254E-001
2	1	0	0	0	0	4,993729873847769E+001	1,6697669E+000	1,6711452E+000	2,920436454185180E-002	1,000000000000000E+000	4,9973268E-004	41	3,4113663E-001	4,8804734E-005	1,3300085E+000
2	1	0	1	0	0	6,413009837993741E+001	1,3859124E+000	1,3872303E+000	-1,356117815988229E-004	1,000000000000000E+000	5,4901710E-004	41	8,9495659E-001	-1,8812477E-007	4,9227369E-001
2	0	0	0	0	0	7,832299802139460E+001	1,1020542E+000	1,1033678E+000	-8,178476614787182E-004	1,000000000000000E+000	5,4255535E-004	41	9,4235998E-001	-9,0238677E-007	1,6100782E-001
2	0	0	0	0	0	9,251589766285178E+001	8,1819510E-001	8,1950951E-001	-6,397654520688689E-003	1,000000000000000E+000	5,0843973E-004	41	1,1190405E+000	-5,2429386E-006	-2,9953098E-001
2	0	0	1	0	0	1,067086973043115E+002	5,3434092E-001	5,3567958E-001	-3,385726665424034E-003	1,000000000000000E+000	3,6191021E-004	41	1,3056623E+000	-1,8136647E-006	-7,6998270E-001
2	0	0	0	0	0	1,209015969457687E+002	2,5048271E-001	2,5186971E-001	-5,797705341440917E-003	1,000000000000000E+000	3,0766989E-004	41	1,4386880E+000	-1,4602664E-006	-1,1868184E+000
2	1	0	1	0	1	1,348750965927684E+002	3,8988285E-002	4,0417690E-002	1,499779761237111E-002	1,000000000000000E+000	1,1720004E-004	41	1,1194396E+000	6,0617634E-007	-1,0790219E+000
2	1	0	1	0	1	1,490679962342256E+002	3,2284629E-001	3,2421124E-001	5,949915057643909E-004	1,000000000000000E+000	1,5888309E-004	41	1,0804698E+000	1,9290293E-007	-7,5625861E-001
2	0	0	0	0	1	1,632608958756828E+002	6,0670537E-001	6,0804915E-001	-1,833057801654814E-005	1,000000000000000E+000	1,5313145E-004	41	1,1454779E+000	-1,1145892E-008	-5,3742874E-001
2	1	0	0	0	1	1,774536955171425E+002	8,9055979E-001	8,9189398E-001	3,110281224098000E-003	1,000000000000000E+000	1,7243538E-004	41	9,8425353E-001	2,7740411E-006	-9,2359543E-002
2	1	0	1	0	1	1,914166951644074E+002	1,1698203E+000	1,1711618E+000	6,487846122954777E-003	2,000000000000000E+000	2,4598770E-004	41	7,8705335E-001	7,5983176E-006	3,8410842E-001
2	1	0	1	0	1	2,056095948058646E+002	1,4536772E+000	1,4550538E+000	7,857711022472652E-003	2,000000000000000E+000	3,5073078E-004	41	6,9421273E-001	1,1433393E-005	7,6084107E-001
2	1	0	1	0	1	2,192351944616530E+002	1,6737664E+000	1,6751497E+000	2,903793378361395E-002	2,000000000000000E+000	6,8522443E-004	41	3,5940003E-001	4,8642887E-005	1,3157496E+000
2	1	0	0	0	1	2,334279941031127E+002	1,3899091E+000	1,3912244E+000	-1,492937303007017E-004	2,000000000000000E+000	7,3194911E-004	41	9,0831214E-001	-2,0770108E-007	4,8291224E-001
2	0	0	0	0	1	2,476208937445699E+002	1,1060518E+000	1,1073738E+000	-8,171291236584860E-004	2,000000000000000E+000	7,2526361E-004	41	9,5269042E-001	-9,0486742E-007	1,5468341E-001
2	0	0	1	0	1	2,618137933860271E+002	8,2219499E-001	8,2350439E-001	-6,564702803009644E-003	2,000000000000000E+000	6,9093151E-004	41	1,1298687E+000	-5,4060615E-006	-3,0636436E-001
2	0	0	0	0	1	2,760065930274868E+002	5,3833789E-001	5,3967202E-001	-2,250463702576019E-003	2,000000000000000E+000	5,4089847E-004	41	1,2981088E+000	-1,2145123E-006	-7,5843680E-001
2	0	0	0	0	1	2,901994926689440E+002	2,5448027E-001	2,5583154E-001	-4,942769545908061E-003	2,000000000000000E+000	5,0248357E-004	41	1,4117815E+000	-1,2645163E-006	-1,1559501E+000
2	1	0	1	0	0	3,041729923159437E+002	3,4991134E-002	3,6416322E-002	2,064760630182402E-002	2,000000000000000E+000	3,2527526E-004	41	1,0019838E+000	7,5190985E-007	-9,6556747E-001
2	1	0	0	0	0	3,183658919574009E+002	3,1884873E-001	3,2022125E-001	1,323473102109111E-003	2,000000000000000E+000	3,7925915E-004	41	1,0121599E+000	4,2380421E-007	-6,9193870E-001
2	0	0	0	0	0	3,325587915988581E+002	6,0270548E-001	6,0403425E-001	-4,892776631069379E-005	2,000000000000000E+000	3,7628203E-004	41	1,0751659E+000	-2,9554046E-008	-4,7113162E-001
2	1	0	0	0	0	3,467515912403178E+002	8,8656265E-001	8,8792235E-001	3,088779512868404E-003	2,000000000000000E+000	3,9284973E-004	41	9,4379276E-001	2,7425963E-006	-5,5870414E-002
2	1	0	1	0	0	3,607145908875827E+002	1,1658220E+000	1,1671692E+000	5,766935433871773E-003	3,000000000000000E+000	4,6223041E-004	41	7,8581667E-001	6,7309893E-006	3,8135254E-001
2	1	0	0	0	0	3,749074905290399E+002	1,4496807E+000	1,4510506E+000	6,870750599523606E-003	3,000000000000000E+000	5,5330381E-004	41	7,1519458E-001	9,9698073E-006	7,3585606E-001
2	1	0	1	0	0	3,885330901848283E+002	1,6777631E+000	1,6791252E+000	3,657370536267135E-002	3,000000000000000E+000	9,0485543E-004	41	2,5110513E-001	6,1411833E-005	1,4280200E+000
2	0	0	0	0	0	4,027258898262880E+002	1,3939086E+000	1,3952558E+000	-1,716742317829376E-004	3,000000000000000E+000	9,6153130E-004	41	9,1568166E-001	-2,3952947E-007	4,7957414E-001
2	0	0	1	0	0	4,169187894677452E+002	1,1100502E+000	1,1113696E+000	-8,210931700542478E-004	3,000000000000000E+000	9,5458847E-004	41	9,5961845E-001	-9,1253798E-007	1,5175116E-001
2	0	0	1	0	0	4,311116891092024E+002	8,2619131E-001	8,2753408E-001	-6,458442709918577E-003	3,000000000000000E+000	9,2059345E-004	41	1,1334196E+000	-5,3445815E-006	-3,0588555E-001
2	0	0	0	0	0	4,453044887506621E+002	5,4233694E-001	5,4368639E-001	-2,085768416537001E-003	3,000000000000000E+000	7,6772639E-004	41	1,3091587E+000	-1,1340039E-006	-7,6547229E-001
2	0	0	1	0	0	4,594973883921193E+002	2,5847867E-001	2,5985077E-001	-5,068399976681622E-003	3,000000000000000E+000	7,3032122E-004	41	1,4280074E+000	-1,3170277E-006	-1,1681566E+000
2	1	0	0	0	1	4,734708880391190E+002	3,0992307E-002	3,2433167E-002	2,581157469913620E-002	3,000000000000000E+000	5,5333175E-004	41	9,5357877E-001	8,3715111E-007	-9,2114562E-001
2	1	0	0	0	1	4,876637876805762E+002	3,1485033E-001	3,1625539E-001	2,020339187749826E-003	3,000000000000000E+000	6,1563193E-004	41	9,8511893E-001	6,3894316E-007	-6,6886353E-001
2	0	0	1	0	1	5,018566873220334E+002	5,9870940E-001	6,0006821E-001	1,058341740990662E-005	3,000000000000000E+000	6,1549031E-004	41	1,0474976E+000	6,3507724E-009	-4,4742942E-001
2	1	0	1	0	1	5,160494869634931E+002	8,8256383E-001	8,8393307E-001	3,156635993408388E-003	3,000000000000000E+000	6,3134282E-004	41	9,2711264E-001	2,7902549E-006	-4,3179572E-002
2	1	0	0	0	1	5,300124866107581E+002	1,1618242E+000	1,1631556E+000	5,408088402620886E-003	4,000000000000000E+000	6,9823232E-004	41	7,8722835E-001	6,2904483E-006	3,7592721E-001
2	1	0	0	0	1	5,442053862522152E+002	1,4456812E+000	1,4470601E+000	6,339342984638494E-003	4,000000000000000E+000	7,8262197E-004	41	7,2682470E-001	9,1734100E-006	7,2023541E-001
2	1	0	0	0	1	5,578309859080036E+002	1,6817623E+000	1,6831653E+000	4,439537056247933E-002	4,000000000000000E+000	1,1393814E-003	41	1,3579386E-001	7,4724747E-005	1,5473714E+000
2	0	0	1	0	1	5,720237855494634E+002	1,3979053E+000	1,3992599E+000	-1,856944314870142E-004	4,000000000000000E+000	1,2064908E-003	41	9,1968489E-001	-2,5983476E-007	4,7957504E-001
2	0	0	1	0	1	5,862166851909205E+002	1,1140479E+000	1,1154059E+000	-8,187211457443963E-004	4,000000000000000E+000	1,1994366E-003	41	9,6344769E-001	-9,1320641E-007	1,5195823E-001
2	0	0	0	0	1	6,004095848323777E+002	8,3019096E-001	8,3152598E-001	-6,249082455791422E-003	4,000000000000000E+000	1,1661103E-003	41	1,1324595E+000	-5,1962743E-006	-3,0093354E-001
2	0	0	1	0	1	6,146023844738374E+002	5,4633385E-001	5,4768342E-001	-2,033790618573353E-003	4,000000000000000E+000	1,0111943E-003	41	1,3188939E+000	-1,1138734E-006	-7,7121049E-001
2	0	0	1	0	1	6,287952841152946E+002	2,6247624E-001	2,6381868E-001	-4,989136892884098E-003	4,000000000000000E+000	9,7491301E-004	41	1,4366133E+000	-1,3162276E-006	-1,1727946E+000
2	1	0	0	0	0	6,427687837622943E+002	2,6995160E-002	2,8430078E-002	3,173022461634334E-002	4,000000000000000E+000	7,9573737E-004	41	9,1927457E-001	9,0209278E-007	-8,9084446E-001
2	1	0	1	0	0	6,569616834037515E+002	3,1085277E-001	3,1223646E-001	2,420735522455419E-003	4,000000000000000E+000	8,6374604E-004	41	9,7731346E-001	7,5584188E-007	-6,6507697E-001
2	0	0	1	0	0	6,711545830452087E+002	5,9470952E-001	5,9603548E-001	-3,634650696495231E-005	4,000000000000000E+000	8,6440390E-004	41	1,0450960E+000	-2,1663809E-008	-4,4906056E-001
2	1	0	1	0	0	6,853473826866684E+002	8,7856668E-001	8,7991017E-001	3,210776114556509E-003	4,000000000000000E+000	8,7921019E-004	41	9,2631495E-001	2,8251945E-006	-4,6404779E-002
2	1	0	0	0	0	6,993103823339334E+002	1,1578261E+000	1,1591800E+000	5,202036534268567E-003	5,000000000000000E+000	9,4488630E-004	41	7,9126585E-001	6,0300968E-006	3,6791420E-001
2	1	0	1	0	0	7,135032819753906E+002	1,4416848E+000	1,4430567E+000	6,002256418453950E-003	5,000000000000000E+000	1,0253785E-003	41	7,3466122E-001	8,6615964E-006	7,0839548E-001
2	1	0	0	0	0	7,271288816311790E+002	1,6857589E+000	1,6871538E+000	5,324261827651711E-002	5,000000000000000E+000	1,3812357E-003	41	4,3938803E-003	8,9828485E-005	1,6827599E+000
2	0	0	1	0	0	7,413216812726387E+002	1,4019047E+000	1,4032518E+000	-1,924208491284512E-004	5,000000000000000E+000	1,4600091E-003	41	9,2182791E-001	-2,7001491E-007	4,8142385E-001
2	0	0	0	0	0	7,555145809140959E+002	1,1180462E+000	1,1194113E+000	-8,120521570423259E-004	5,000000000000000E+000	1,4529150E-003	41	9,6542698E-001	-9,0902040E-007	1,5398437E-001
2	0	0	0	0	0	7,697074805555530E+002	8,3418721E-001	8,3553129E-001	-6,006943731659109E-003	5,000000000000000E+000	1,4204028E-003	41	1,1291097E+000	-5,0189897E-006	-2,9357845E-001
2	0	0	1	0	0	7,839002801970128E+002	5,5033290E-001	5,5170488E-001	-2,093137185501925E-003	5,000000000000000E+000	1,2632429E-003	41	1,3295738E+000	-1,1547941E-006	-7,7786887E-001
2	0	0	0	0	0	7,980931798384700E+002	2,6647463E-001	2,6785147E-001	-4,998896415682366E-003	5,000000000000000E+000	1,2266366E-003	41	1,4476161E+000	-1,3389617E-006	-1,1797646E+000
2	0	0	0	0	0	8,111619795083243E+002	4,9062776E-003	6,3791764E-003	-1,151606440544128E-001	5,000000000000000E+000	1,0575058E-003	41	3,2084901E+000	-7,3463008E-007	-3,2021110E+000