File: Quantification/development/OER_repeatability_single_day/OERonPt_RnD1_1.csv
ixdat version = 0.2.3
name = 2022-04-27 11_30_26 OER_repetition_1 AND 2022-04-27 11_30_26 OER_repetition_1_01_01_CVA_DUSB0_C01.mpt AND 2022-04-27 11_30_26 OER_repetition_1_01_02_CP_DUSB0_C01.mpt
technique = EC-MS
tstamp = 1651051826.0
backend_name = BackendBase(none, address=none)
id = 4
timecol 'time/s' for: 'Ewe/V' and 'raw_current' and 'selector'
timecol 'C1M4 time [s]' for: 'M4'
timecol 'C5M44 time [s]' for: 'M44'
timecol 'C4M40 time [s]' for: 'M40'
timecol 'C0M2 time [s]' for: 'M2'
timecol 'C2M28 time [s]' for: 'M28'
timecol 'C3M32 time [s]' for: 'M32'
timecol 'C6M18 time [s]' for: 'M18'
aliases = {"M2": ["M2 [A]"], "M4": ["M4 [A]"], "M28": ["M28 [A]"], "M32": ["M32 [A]"], "M40": ["M40 [A]"], "M44": ["M44 [A]"], "M18": ["M18 [A]"], "t": ["time/s"], "raw_potential": ["Ewe/V"], "raw_current": ["I/mA", "<I>/mA"], "cycle": ["cycle number"]}
N_header_lines = 18

time/s,	Ewe/V,	raw_current,	selector,	C1M4 time [s],	M4,	C5M44 time [s],	M44,	C4M40 time [s],	M40,	C0M2 time [s],	M2,	C2M28 time [s],	M28,	C3M32 time [s],	M32,	C6M18 time [s],	M18
490.0,	0.911481,	-9.89945e-05,	0,	0.620655,	1.297145e-12,	0.918511,	8.095496e-11,	0.843547,	9.340672e-10,	0.545691,	1.409445e-09,	0.694619,	8.853932e-08,	0.769583,	2.305096e-08,	0.992475,	1.545687e-09
556.42,	1.36116,	-0.000132252,	0,	113.715,	1.070156e-12,	114.013,	8.15588e-11,	113.939,	9.265231e-10,	113.641,	1.402272e-09,	113.79,	8.887764e-08,	113.864,	2.320657e-08,	114.088,	1.459683e-09
616.688,	0.155661,	-0.0113201,	0,	226.811,	2.799876e-10,	227.109,	9.016713e-11,	227.035,	9.129069e-10,	226.737,	1.377985e-09,	226.886,	8.626903e-08,	226.96,	2.257056e-08,	227.184,	1.373184e-09
675.765,	1.046918,	0.00588077,	1,	339.906,	3.596299e-08,	340.204,	5.115445e-11,	340.129,	5.930795e-11,	339.831,	1.762755e-09,	339.98,	4.88013e-09,	340.055,	1.54403e-09,	340.278,	3.775034e-09
735.295,	1.16322,	-0.000648516,	1,	453.001,	3.724942e-08,	453.299,	2.467651e-11,	453.225,	5.948402e-12,	452.927,	1.780381e-09,	453.076,	3.55758e-10,	453.15,	3.73809e-10,	453.374,	4.042951e-09
794.927,	0.05054713,	0.0244701,	1,	566.096,	3.741113e-08,	566.394,	3.776485e-11,	566.32,	4.855122e-12,	566.022,	1.821105e-09,	566.171,	2.779162e-10,	566.245,	4.447449e-10,	566.469,	4.019444e-09
854.641,	1.24482,	0.0102389,	2,	679.191,	3.729474e-08,	679.489,	3.855737e-11,	679.414,	3.836648e-12,	679.116,	1.871847e-09,	679.265,	2.404784e-10,	679.34,	3.105407e-10,	679.563,	3.988605e-09
914.171,	0.965307,	-0.00233826,	2,	792.286,	3.743207e-08,	792.584,	3.370454e-11,	792.509,	4.015619e-12,	792.211,	6.578851e-09,	792.36,	2.518064e-10,	792.435,	3.036815e-10,	792.658,	4.045264e-09
973.803,	0.248412,	0.00599425,	2,	905.382,	3.749552e-08,	905.68,	5.354536e-11,	905.606,	3.305845e-12,	905.308,	1.930597e-09,	905.457,	2.093252e-10,	905.531,	3.61334e-10,	905.755,	3.97677e-09
1033.52,	1.44269,	0.0121307,	3,	1018.48,	3.745844e-08,	1018.77,	4.739682e-11,	1018.7,	3.31164e-12,	1018.4,	1.96358e-09,	1018.55,	1.978125e-10,	1018.625,	2.862321e-10,	1018.85,	3.992332e-09
1093.05,	0.767416,	-0.0199974,	3,	1131.57,	3.781367e-08,	1131.87,	3.080794e-11,	1131.8,	3.384874e-12,	1131.5,	3.456269e-09,	1131.65,	1.890006e-10,	1131.72,	2.843567e-10,	1131.94,	4.021636e-09
1152.68,	0.446265,	0.000535191,	3,	1244.67,	3.750246e-08,	1244.96,	4.590756e-11,	1244.89,	3.029865e-12,	1244.59,	1.986752e-09,	1244.74,	1.905497e-10,	1244.82,	3.662051e-10,	1245.04,	3.963076e-09
1212.39,	1.64065,	0.0439995,	4,	1357.76,	3.752806e-08,	1358.06,	4.284271e-11,	1357.99,	3.262117e-12,	1357.69,	2.003826e-09,	1357.84,	1.808904e-10,	1357.91,	2.786369e-10,	1358.14,	3.961618e-09
1271.92,	0.569541,	-0.00212571,	4,	1470.86,	3.721453e-08,	1471.15,	2.759195e-11,	1471.08,	2.960735e-12,	1470.78,	2.530574e-09,	1470.93,	1.727472e-10,	1471.01,	2.723531e-10,	1471.23,	3.944296e-09
1331.55,	0.644192,	0.000700655,	4,	1583.95,	3.728406e-08,	1584.25,	2.466781e-11,	1584.18,	2.723811e-12,	1583.88,	2.02788e-09,	1584.03,	1.698698e-10,	1584.1,	2.703532e-10,	1584.33,	3.895803e-09
1390.53,	1.57709,	0.00237806,	5,	1697.05,	3.764246e-08,	1697.35,	2.172726e-11,	1697.27,	2.906602e-12,	1696.97,	2.049257e-09,	1697.12,	1.67202e-10,	1697.2,	2.644861e-10,	1697.42,	3.905434e-09
1450.8,	0.371652,	-0.00122388,	5,	1810.14,	3.813145e-08,	1810.44,	2.161725e-11,	1810.37,	2.791466e-12,	1810.07,	2.057845e-09,	1810.22,	1.663871e-10,	1810.29,	2.678779e-10,	1810.52,	3.905359e-09
1510.42,	0.84177,	0.00273893,	5,	1923.24,	3.751332e-08,	1923.54,	3.416225e-11,	1923.46,	2.646857e-12,	1923.16,	2.068824e-09,	1923.31,	1.655704e-10,	1923.39,	2.789002e-10,	1923.61,	3.86592e-09
1701.74,	0.880375,	8.64461e-07,	6,	2036.33,	3.832786e-08,	2036.63,	2.36892e-11,	2036.56,	2.951184e-12,	2036.26,	2.070303e-09,	2036.41,	1.602202e-10,	2036.48,	3.301251e-10,	2036.7,	3.911551e-09
1897.24,	1.394982,	0.00250088,	7,	2149.43,	3.756444e-08,	2149.73,	2.106859e-11,	2149.65,	3.052089e-12,	2149.35,	2.10015e-09,	2149.5,	1.578012e-10,	2149.58,	2.682094e-10,	2149.8,	3.883381e-09
2098.24,	1.5854,	0.00250107,	7,	2262.52,	3.761648e-08,	2262.82,	1.938257e-11,	2262.75,	2.786104e-12,	2262.45,	2.107113e-09,	2262.6,	1.55594e-10,	2262.67,	2.587641e-10,	2262.9,	3.839233e-09
2292.28,	1.26998,	2.52605e-08,	8,	2375.62,	3.819691e-08,	2375.92,	1.925513e-11,	2375.84,	2.669375e-12,	2375.54,	2.102782e-09,	2375.69,	1.532267e-10,	2375.77,	2.591428e-10,	2375.99,	3.884623e-09
2458.23,	1.61601,	0.00500139,	9,	2488.71,	3.85462e-08,	2489.01,	2.078693e-11,	2488.94,	2.813195e-12,	2488.64,	2.101326e-09,	2488.79,	1.548833e-10,	2488.86,	4.083616e-10,	2489.09,	3.870941e-09
2659.23,	1.63915,	0.00500112,	9,	2601.81,	3.798588e-08,	2602.11,	2.033809e-11,	2602.03,	2.7329e-12,	2601.73,	2.092961e-09,	2601.88,	1.53029e-10,	2601.96,	4.133009e-10,	2602.18,	3.893176e-09
2851.32,	1.36579,	4.44861e-07,	10,	2714.9,	3.739748e-08,	2715.2,	1.986261e-11,	2715.13,	2.797298e-12,	2714.83,	2.104927e-09,	2714.98,	1.507506e-10,	2715.05,	3.838712e-10,	2715.28,	3.838785e-09
3017.05,	1.64726,	0.010002,	11,	2828,	3.805871e-08,	2828.3,	1.920897e-11,	2828.22,	2.791671e-12,	2827.92,	2.131427e-09,	2828.07,	1.484509e-10,	2828.15,	2.571551e-10,	2828.37,	3.859968e-09
3218.05,	1.68115,	0.0100014,	11,	2941.09,	3.768911e-08,	2941.39,	1.830233e-11,	2941.32,	2.499438e-12,	2941.02,	2.13909e-09,	2941.17,	1.48059e-10,	2941.24,	2.567006e-10,	2941.47,	3.842405e-09
3408.08,	1.42102,	1.16962e-06,	12,	3054.19,	3.730571e-08,	3054.49,	1.984862e-11,	3054.41,	2.419281e-12,	3054.11,	2.105397e-09,	3054.26,	1.487401e-10,	3054.34,	5.401004e-10,	3054.56,	3.846832e-09
3609.08,	1.321249,	9.78897e-07,	12,	3167.28,	3.811327e-08,	3167.58,	1.976269e-11,	3167.51,	2.624269e-12,	3167.21,	2.097059e-09,	3167.36,	1.468863e-10,	3167.43,	5.731413e-10,	3167.66,	3.887731e-09
3774.61,	1.70864,	0.0150022,	13,	3280.38,	3.731287e-08,	3280.68,	1.999294e-11,	3280.6,	2.730409e-12,	3280.3,	2.093243e-09,	3280.45,	1.457405e-10,	3280.53,	5.700425e-10,	3280.75,	3.847086e-09
3963.47,	1.4713,	6.35588e-07,	14,	3393.47,	3.798593e-08,	3393.77,	1.863665e-11,	3393.7,	2.525725e-12,	3393.4,	2.139068e-09,	3393.55,	1.445981e-10,	3393.62,	2.620855e-10,	3393.85,	3.864812e-09
4164.47,	1.3602,	9.40752e-07,	14,	3506.57,	3.734304e-08,	3506.87,	1.858396e-11,	3506.79,	2.589577e-12,	3506.49,	2.155927e-09,	3506.64,	1.417555e-10,	3506.72,	2.521242e-10,	3506.94,	3.802196e-09
4330.36,	1.72892,	0.0200021,	15,	3619.66,	3.730304e-08,	3619.96,	1.911784e-11,	3619.89,	2.059336e-12,	3619.59,	2.156587e-09,	3619.74,	1.418149e-10,	3619.81,	4.639855e-10,	3620.04,	3.804686e-09
4517.4,	1.57821,	8.64461e-07,	16,	3732.76,	3.712331e-08,	3733.06,	2.023423e-11,	3732.98,	2.58258e-12,	3732.68,	2.090489e-09,	3732.83,	1.425133e-10,	3732.91,	7.184981e-10,	3733.13,	3.812526e-09
4718.4,	1.39531,	9.02606e-07,	16,	3845.86,	3.678372e-08,	3846.15,	2.002589e-11,	3846.08,	2.553795e-12,	3845.78,	2.082811e-09,	3845.93,	1.446873e-10,	3846,	7.280532e-10,	3846.23,	3.836006e-09
,	,	,	,	3958.95,	3.752982e-08,	3959.25,	1.872555e-11,	3959.17,	2.773288e-12,	3958.88,	2.137902e-09,	3959.03,	1.425975e-10,	3959.1,	2.872695e-10,	3959.32,	3.838191e-09
,	,	,	,	4072.05,	3.719508e-08,	4072.34,	1.815728e-11,	4072.27,	2.389914e-12,	4071.97,	2.159945e-09,	4072.12,	1.349566e-10,	4072.19,	2.547708e-10,	4072.42,	3.832804e-09
,	,	,	,	4187.15,	3.818957e-08,	4187.44,	1.825907e-11,	4187.37,	2.03679e-12,	4187.07,	2.187187e-09,	4187.22,	1.31745e-10,	4187.3,	2.482166e-10,	4187.52,	3.81565e-09
,	,	,	,	4300.24,	3.755362e-08,	4300.54,	2.033239e-11,	4300.46,	2.372354e-12,	4300.17,	2.081423e-09,	4300.32,	1.32201e-10,	4300.39,	8.751113e-10,	4300.61,	3.8165e-09
,	,	,	,	4413.34,	3.677605e-08,	4413.63,	1.985221e-11,	4413.56,	2.333806e-12,	4413.26,	2.073665e-09,	4413.41,	1.301561e-10,	4413.49,	8.854529e-10,	4413.71,	3.818193e-09
,	,	,	,	4526.43,	3.725012e-08,	4526.73,	1.945255e-11,	4526.65,	2.475697e-12,	4526.36,	2.105589e-09,	4526.51,	1.320115e-10,	4526.58,	4.851552e-10,	4526.8,	3.872528e-09
,	,	,	,	4639.53,	3.7432e-08,	4639.83,	1.803506e-11,	4639.75,	2.306102e-12,	4639.45,	2.173518e-09,	4639.6,	1.2944e-10,	4639.68,	2.609688e-10,	4639.9,	3.812903e-09
,	,	,	,	4752.62,	3.744351e-08,	4752.92,	1.79445e-11,	4752.85,	2.270252e-12,	4752.55,	2.194074e-09,	4752.7,	1.319171e-10,	4752.77,	2.503271e-10,	4752.99,	3.841775e-09
,	,	,	,	4865.72,	3.748533e-08,	4866.02,	1.751291e-11,	4865.94,	2.167546e-12,	4865.64,	2.192424e-09,	4865.79,	1.311195e-10,	4865.87,	2.471161e-10,	4866.09,	3.828128e-09
,	,	,	,	4978.81,	3.757368e-08,	4979.11,	1.798957e-11,	4979.04,	2.327369e-12,	4978.74,	2.213369e-09,	4978.89,	1.276951e-10,	4978.96,	2.451502e-10,	4979.18,	3.761981e-09
,	,	,	,	5091.91,	3.700458e-08,	5092.2,	1.797905e-11,	5092.13,	2.343868e-12,	5091.83,	2.209814e-09,	5091.98,	1.318557e-10,	5092.06,	2.440509e-10,	5092.28,	3.724916e-09
,	,	,	,	5205,	3.729687e-08,	5205.3,	1.708822e-11,	5205.23,	2.343524e-12,	5204.93,	2.216895e-09,	5205.08,	1.303605e-10,	5205.15,	2.393752e-10,	5205.375,	3.729851e-09
,	,	,	,	5318.1,	3.872181e-09,	5318.4,	5.984411e-11,	5318.32,	1.157839e-09,	5318.02,	1.848133e-09,	5318.17,	7.000014e-08,	5318.25,	1.533105e-08,	5318.47,	3.764027e-09
,	,	,	,	5431.19,	1.140672e-10,	5431.49,	2.507536e-11,	5431.42,	6.102889e-08,	5431.12,	1.646738e-09,	5431.27,	2.04729e-09,	5431.34,	6.355919e-10,	5431.57,	3.026991e-09
,	,	,	,	5544.29,	3.472092e-08,	5544.59,	2.042848e-11,	5544.51,	4.343601e-09,	5544.21,	2.175422e-09,	5544.36,	2.334833e-10,	5544.44,	2.893146e-10,	5544.66,	3.801111e-09
,	,	,	,	5657.38,	3.638078e-08,	5657.68,	1.933648e-11,	5657.61,	1.697331e-09,	5657.31,	2.250033e-09,	5657.46,	1.73024e-10,	5657.53,	2.670696e-10,	5657.76,	3.853118e-09
,	,	,	,	5770.48,	8.107395e-10,	5770.78,	2.161416e-11,	5770.7,	5.989384e-08,	5770.4,	1.912119e-09,	5770.55,	4.051821e-10,	5770.63,	3.830754e-10,	5770.85,	3.010909e-09
,	,	,	,	5883.57,	1.257679e-10,	5883.87,	2.175274e-11,	5883.8,	6.253862e-08,	5883.5,	2.020688e-09,	5883.65,	3.367205e-10,	5883.72,	3.437278e-10,	5883.95,	2.944848e-09
,	,	,	,	5996.67,	8.02637e-11,	5996.97,	2.158599e-11,	5996.89,	6.320072e-08,	5996.59,	2.140789e-09,	5996.74,	2.877598e-10,	5996.82,	3.164413e-10,	5997.04,	2.965934e-09
,	,	,	,	6109.76,	3.83789e-08,	6110.06,	1.871562e-11,	6109.99,	2.584685e-10,	6109.69,	2.178849e-09,	6109.84,	1.380192e-10,	6109.91,	2.485455e-10,	6110.13,	3.857542e-09
,	,	,	,	6166.59,	3.803687e-08,	6166.89,	1.781348e-11,	6166.82,	1.510799e-10,	6166.52,	2.187643e-09,	6166.67,	1.355372e-10,	6166.74,	2.475061e-10,	6166.96,	3.813561e-09