File: Quantification/development/OER_repeatability_single_day/OERonPt_RnD1_2.csv
ixdat version = 0.2.3
name = 2022-04-27 13_48_01 OER_repetition_2 AND 2022-04-27 13_48_01 OER_repetition_2_01_01_CVA_DUSB0_C01.mpt AND 2022-04-27 13_48_01 OER_repetition_2_01_02_CP_DUSB0_C01.mpt
technique = EC-MS
tstamp = 1651060081.0
backend_name = BackendBase(none, address=none)
id = 35
timecol 'time/s' for: 'Ewe/V' and 'raw_current' and 'selector'
timecol 'C1M4 time [s]' for: 'M4'
timecol 'C5M44 time [s]' for: 'M44'
timecol 'C4M40 time [s]' for: 'M40'
timecol 'C0M2 time [s]' for: 'M2'
timecol 'C2M28 time [s]' for: 'M28'
timecol 'C3M32 time [s]' for: 'M32'
timecol 'C6M18 time [s]' for: 'M18'
aliases = {"M2": ["M2 [A]"], "M4": ["M4 [A]"], "M28": ["M28 [A]"], "M32": ["M32 [A]"], "M40": ["M40 [A]"], "M44": ["M44 [A]"], "M18": ["M18 [A]"], "t": ["time/s"], "raw_potential": ["Ewe/V"], "raw_current": ["I/mA", "<I>/mA"], "cycle": ["cycle number"]}
N_header_lines = 18

time/s,	Ewe/V,	raw_current,	selector,	C1M4 time [s],	M4,	C5M44 time [s],	M44,	C4M40 time [s],	M40,	C0M2 time [s],	M2,	C2M28 time [s],	M28,	C3M32 time [s],	M32,	C6M18 time [s],	M18
1136.0,	1.12862,	-2.07418e-05,	0,	0.600189,	9.840486e-12,	0.898379,	7.848664e-11,	0.824332,	8.11942e-10,	0.526142,	1.74253e-09,	0.675237,	7.747616e-08,	0.749284,	2.004246e-08,	0.973426,	8.243885e-09
1198.45,	1.223526,	-0.000405018,	0,	105.818,	2.854733e-08,	106.116,	7.165615e-11,	106.042,	2.304525e-10,	105.744,	1.905467e-09,	105.893,	1.004898e-08,	105.967,	3.993619e-09,	106.191,	4.908773e-09
1254.52,	0.101973,	-0.0125179,	0,	211.036,	3.500643e-08,	211.334,	3.848578e-11,	211.26,	1.434389e-11,	210.962,	1.850618e-09,	211.111,	7.94487e-10,	211.185,	5.512443e-10,	211.409,	4.685542e-09
1309.97,	1.02802,	0.0065881,	0,	316.254,	3.404949e-08,	316.552,	2.556759e-11,	316.478,	8.827042e-12,	316.18,	1.860562e-09,	316.329,	5.592361e-10,	316.403,	4.322371e-10,	316.627,	4.30324e-09
1365.03,	1.27149,	-0.000524933,	1,	421.472,	3.413092e-08,	421.77,	2.33291e-11,	421.696,	8.082561e-12,	421.398,	1.899165e-09,	421.547,	4.605138e-10,	421.621,	3.916491e-10,	421.845,	4.136253e-09
1421.1,	0.149912,	-0.00839747,	1,	526.69,	2.455697e-11,	526.988,	7.386319e-11,	526.913,	8.335183e-10,	526.615,	1.524082e-09,	526.764,	7.883673e-08,	526.839,	2.066137e-08,	527.062,	2.621341e-09
1476.55,	0.980032,	0.00606131,	1,	631.908,	5.139847e-10,	632.206,	8.790183e-11,	632.131,	8.087044e-10,	631.833,	1.423222e-09,	631.982,	7.633738e-08,	632.057,	2.013788e-08,	632.28,	1.831151e-09
1531.61,	1.31946,	-0.00047316,	2,	737.126,	3.324844e-08,	737.424,	3.387279e-11,	737.349,	1.042719e-11,	737.051,	1.765506e-09,	737.2,	6.071531e-10,	737.275,	4.626333e-10,	737.498,	3.805662e-09
1587.68,	0.197894,	-0.00524947,	2,	842.343,	9.143185e-12,	842.641,	7.172014e-11,	842.566,	8.088787e-10,	842.268,	1.443493e-09,	842.417,	7.780724e-08,	842.492,	2.006493e-08,	842.715,	2.186852e-09
1643.13,	0.932117,	0.00594783,	2,	947.5625,	3.269435e-10,	947.861,	7.281079e-11,	947.786,	7.889414e-10,	947.487,	1.367512e-09,	947.636,	7.535522e-08,	947.711,	1.98664e-08,	947.934,	1.460174e-09
1698.19,	1.36745,	-0.00040689,	3,	1052.78,	3.302327e-08,	1053.08,	2.838421e-11,	1053,	9.45646e-12,	1052.7,	1.704692e-09,	1052.85,	4.454745e-10,	1052.93,	3.950081e-10,	1053.15,	3.674568e-09
1754.26,	0.245875,	-0.00468319,	3,	1158,	3.307327e-08,	1158.3,	2.117636e-11,	1158.22,	7.285253e-12,	1157.92,	1.76061e-09,	1158.07,	2.851206e-10,	1158.15,	3.185883e-10,	1158.37,	3.666649e-09
1809.71,	0.884096,	0.00587356,	3,	1263.21,	3.304248e-08,	1263.51,	2.268801e-11,	1263.44,	5.986715e-12,	1263.14,	2.12038e-09,	1263.29,	2.3644e-10,	1263.36,	2.850121e-10,	1263.59,	3.674661e-09
1865.09,	1.4091,	-0.00034689,	4,	1368.43,	3.310467e-08,	1368.73,	3.515744e-11,	1368.66,	5.678085e-12,	1368.36,	1.823426e-09,	1368.51,	2.186994e-10,	1368.58,	3.080424e-10,	1368.81,	3.678724e-09
1921.16,	0.287591,	-0.0049847,	4,	1473.65,	3.315292e-08,	1473.95,	2.656524e-11,	1473.875,	5.48902e-12,	1473.58,	1.875243e-09,	1473.73,	1.93855e-10,	1473.8,	2.662222e-10,	1474.02,	3.69267e-09
1976.6,	0.842141,	0.00467659,	4,	1578.87,	3.335529e-08,	1579.17,	2.360131e-11,	1579.09,	5.328018e-12,	1578.79,	1.875724e-09,	1578.94,	1.861984e-10,	1579.02,	2.659251e-10,	1579.24,	3.644294e-09
2154.31,	0.904325,	2.92279e-07,	5,	1684.09,	3.253743e-08,	1684.38,	3.811343e-11,	1684.31,	5.279981e-12,	1684.01,	1.837796e-09,	1684.16,	1.852136e-10,	1684.24,	2.350319e-09,	1684.46,	3.705474e-09
2336.75,	1.38085,	0.00250195,	6,	1789.31,	3.337844e-08,	1789.6,	1.929323e-11,	1789.53,	4.405906e-12,	1789.23,	1.920945e-09,	1789.38,	1.724263e-10,	1789.45,	2.555084e-10,	1789.68,	3.647739e-09
2523.75,	1.578143,	0.002501566,	6,	1894.52,	3.352558e-08,	1894.82,	2.159197e-11,	1894.75,	4.419787e-12,	1894.45,	1.901903e-09,	1894.6,	1.662223e-10,	1894.67,	2.668908e-10,	1894.89,	3.656357e-09
2704.87,	1.34906,	1.62737e-06,	7,	1999.74,	3.343612e-08,	2000.04,	2.041698e-11,	1999.96,	4.528756e-12,	1999.67,	1.934082e-09,	1999.82,	1.611607e-10,	1999.89,	2.482431e-10,	2000.11,	3.592509e-09
2880.03,	1.38206,	0.00500173,	8,	2104.96,	3.354453e-08,	2105.26,	1.866919e-11,	2105.18,	4.130327e-12,	2104.88,	1.956163e-09,	2105.03,	1.579639e-10,	2105.11,	2.488313e-10,	2105.33,	3.6241e-09
3048.85,	1.62724,	0.00500166,	8,	2210.18,	3.354794e-08,	2210.47,	1.897516e-11,	2210.4,	4.261901e-12,	2210.1,	1.955318e-09,	2210.25,	1.539961e-10,	2210.33,	2.431477e-10,	2210.55,	3.63536e-09
3227.81,	1.45044,	1.51293e-06,	9,	2315.39,	3.374713e-08,	2315.69,	2.024823e-11,	2315.62,	4.099142e-12,	2315.32,	1.961731e-09,	2315.47,	1.535415e-10,	2315.54,	2.401118e-10,	2315.77,	3.610551e-09
3414.81,	1.36205,	1.51293e-06,	9,	2420.61,	3.368439e-08,	2420.91,	1.924305e-11,	2420.84,	4.108641e-12,	2420.54,	1.958108e-09,	2420.69,	1.528326e-10,	2420.76,	3.064567e-10,	2420.98,	3.641509e-09
3572.56,	1.66497,	0.0100014,	10,	2525.83,	3.355856e-08,	2526.13,	1.817202e-11,	2526.05,	3.751155e-12,	2525.76,	1.965198e-09,	2525.9,	1.496202e-10,	2525.98,	3.107044e-10,	2526.2,	3.616405e-09
3759.56,	1.6773,	0.0100017,	10,	2631.05,	3.380609e-08,	2631.35,	1.765251e-11,	2631.27,	3.830979e-12,	2630.97,	1.995522e-09,	2631.12,	1.49233e-10,	2631.2,	2.400015e-10,	2631.42,	3.576626e-09
3935.6,	1.41833,	1.05519e-06,	11,	2736.27,	3.390132e-08,	2736.56,	1.720575e-11,	2736.49,	4.086698e-12,	2736.19,	1.993946e-09,	2736.34,	1.452668e-10,	2736.41,	2.379056e-10,	2736.64,	3.558476e-09
4092.47,	1.68412,	0.01500252,	12,	2841.48,	3.404568e-08,	2841.78,	1.751362e-11,	2841.71,	3.988113e-12,	2841.41,	2.004796e-09,	2841.56,	1.456742e-10,	2841.63,	2.342774e-10,	2841.86,	3.591206e-09
4279.47,	1.70203,	0.0150022,	12,	2946.7,	3.388247e-08,	2947.0,	1.825178e-11,	2946.92,	3.715076e-12,	2946.63,	1.987478e-09,	2946.78,	1.436541e-10,	2946.85,	3.772145e-10,	2947.07,	3.618418e-09
4454.02,	1.46606,	1.55108e-06,	13,	3051.92,	3.370755e-08,	3052.22,	1.790318e-11,	3052.14,	3.618295e-12,	3051.85,	1.988911e-09,	3051.99,	1.428026e-10,	3052.07,	3.780582e-10,	3052.29,	3.548248e-09
4641.02,	1.4057,	1.32221e-06,	13,	3157.14,	3.379224e-08,	3157.43,	1.745135e-11,	3157.36,	3.630966e-12,	3157.06,	1.986312e-09,	3157.21,	1.359843e-10,	3157.29,	3.78815e-10,	3157.51,	3.570306e-09
4798.23,	1.72068,	0.0200017,	14,	3262.36,	3.390458e-08,	3262.65,	1.64424e-11,	3262.58,	3.401303e-12,	3262.28,	2.03243e-09,	3262.43,	1.330537e-10,	3262.5,	2.329446e-10,	3262.73,	3.578383e-09
4979.68,	1.6919,	1.93253e-06,	15,	3367.57,	3.42264e-08,	3367.87,	1.669313e-11,	3367.8,	3.679959e-12,	3367.5,	2.024433e-09,	3367.65,	1.348522e-10,	3367.72,	2.293693e-10,	3367.95,	3.604536e-09
5158.79,	1.43931,	5.97442e-07,	15,	3472.79,	3.395957e-08,	3473.09,	1.70292e-11,	3473.02,	3.582343e-12,	3472.72,	2.028892e-09,	3472.87,	1.318089e-10,	3472.94,	2.25556e-10,	3473.16,	3.619106e-09
,	,	,	,	3578.01,	3.501369e-08,	3578.31,	1.748606e-11,	3578.23,	3.362729e-12,	3577.93,	1.988422e-09,	3578.08,	1.363471e-10,	3578.16,	5.186657e-10,	3578.38,	3.549886e-09
,	,	,	,	3683.23,	3.396252e-08,	3683.53,	1.778311e-11,	3683.45,	3.25424e-12,	3683.15,	1.984136e-09,	3683.3,	1.329201e-10,	3683.38,	5.239961e-10,	3683.6,	3.564221e-09
,	,	,	,	3788.44,	3.523929e-08,	3788.74,	1.72832e-11,	3788.67,	3.263285e-12,	3788.37,	1.997285e-09,	3788.52,	1.352792e-10,	3788.59,	2.875429e-10,	3788.82,	3.549067e-09
,	,	,	,	3893.66,	3.543207e-08,	3893.96,	1.680669e-11,	3893.89,	3.596518e-12,	3893.59,	2.026427e-09,	3893.74,	1.355118e-10,	3893.81,	2.336808e-10,	3894.04,	3.570384e-09
,	,	,	,	3998.88,	3.435101e-08,	3999.18,	1.661731e-11,	3999.1,	3.174813e-12,	3998.81,	2.045149e-09,	3998.95,	1.312321e-10,	3999.03,	2.302128e-10,	3999.25,	3.563457e-09
,	,	,	,	4104.1,	3.378734e-08,	4104.4,	1.689259e-11,	4104.32,	2.874941e-12,	4104.02,	1.986454e-09,	4104.17,	1.345123e-10,	4104.25,	6.342168e-10,	4104.47,	3.530647e-09
,	,	,	,	4209.32,	3.36385e-08,	4209.61,	1.81129e-11,	4209.54,	3.147592e-12,	4209.24,	1.971374e-09,	4209.39,	1.329892e-10,	4209.46,	6.609742e-10,	4209.69,	3.607568e-09
,	,	,	,	4314.53,	3.381111e-08,	4314.83,	1.834581e-11,	4314.76,	3.23739e-12,	4314.46,	1.970761e-09,	4314.61,	1.369913e-10,	4314.68,	6.673829e-10,	4314.91,	3.5829e-09
,	,	,	,	4419.75,	3.392583e-08,	4420.05,	1.685362e-11,	4419.98,	3.588769e-12,	4419.68,	2.027016e-09,	4419.83,	1.346364e-10,	4419.9,	2.428344e-10,	4420.125,	3.546672e-09
,	,	,	,	4524.97,	3.422185e-08,	4525.27,	1.690091e-11,	4525.19,	3.391403e-12,	4524.9,	2.06022e-09,	4525.05,	1.358747e-10,	4525.12,	2.358274e-10,	4525.34,	3.573099e-09
,	,	,	,	4630.19,	3.410555e-08,	4630.49,	1.663085e-11,	4630.41,	3.122259e-12,	4630.11,	2.061178e-09,	4630.26,	1.293412e-10,	4630.34,	2.306365e-10,	4630.56,	3.528738e-09
,	,	,	,	4735.4,	3.373559e-08,	4735.7,	1.822244e-11,	4735.63,	2.967997e-12,	4735.33,	1.965756e-09,	4735.48,	1.332219e-10,	4735.55,	7.937091e-10,	4735.78,	3.517467e-09
,	,	,	,	4840.62,	3.348165e-08,	4840.92,	1.778554e-11,	4840.85,	2.776638e-12,	4840.55,	1.936318e-09,	4840.7,	1.353122e-10,	4840.77,	8.166491e-10,	4841,	3.523033e-09
,	,	,	,	4945.84,	3.379023e-08,	4946.14,	1.766463e-11,	4946.06,	2.994219e-12,	4945.77,	1.917108e-09,	4945.91,	1.313714e-10,	4945.99,	8.246366e-10,	4946.21,	3.49374e-09
,	,	,	,	5051.06,	3.386092e-08,	5051.36,	1.668569e-11,	5051.28,	3.175474e-12,	5050.98,	2.021683e-09,	5051.13,	1.348227e-10,	5051.21,	2.416493e-10,	5051.43,	3.568292e-09
,	,	,	,	5156.28,	3.400672e-08,	5156.58,	1.671041e-11,	5156.5,	2.904898e-12,	5156.2,	2.041321e-09,	5156.35,	1.310378e-10,	5156.43,	2.320587e-10,	5156.65,	3.502087e-09
,	,	,	,	5261.49,	3.411817e-08,	5261.79,	1.629737e-11,	5261.72,	3.192038e-12,	5261.42,	2.053549e-09,	5261.57,	1.312035e-10,	5261.64,	2.288312e-10,	5261.87,	3.522722e-09
,	,	,	,	5366.71,	3.538116e-08,	5367.01,	1.654826e-11,	5366.94,	2.932497e-12,	5366.64,	2.047948e-09,	5366.79,	1.316142e-10,	5366.86,	2.289937e-10,	5367.09,	3.454885e-09
,	,	,	,	5471.93,	3.412062e-08,	5472.23,	1.658376e-11,	5472.15,	2.989677e-12,	5471.86,	2.058141e-09,	5472.01,	1.298871e-10,	5472.08,	2.230641e-10,	5472.3,	3.478225e-09
,	,	,	,	5577.15,	3.436518e-08,	5577.45,	1.598622e-11,	5577.37,	3.160353e-12,	5577.07,	2.069643e-09,	5577.22,	1.280813e-10,	5577.3,	2.249697e-10,	5577.52,	3.534773e-09
,	,	,	,	5682.37,	3.436151e-08,	5682.66,	1.686974e-11,	5682.59,	3.36213e-12,	5682.29,	2.074605e-09,	5682.44,	1.334444e-10,	5682.52,	2.220213e-10,	5682.74,	3.491533e-09
,	,	,	,	5743.7,	3.430041e-08,	5743.99,	1.662531e-11,	5743.92,	2.91135e-12,	5743.62,	2.071756e-09,	5743.77,	1.322537e-10,	5743.85,	2.22753e-10,	5744.07,	3.521432e-09