File: Quantification/development/HERonPt_RnD1_newMS_2.csv
ixdat version = 0.2.2dev
name = 2022-04-07 11_53_00 HER on Pt repeatability.tsv
technique = EC-MS
tstamp = 1649325180.0
backend_name = BackendBase(none, address=none)
id = 5
timecol 'time/s' for: 'Ewe/V' and 'I/mA' and 'selector'
timecol 'M40-x' for: 'M40'
timecol 'M28-x' for: 'M28'
timecol 'M18-x' for: 'M18'
timecol 'M4-x' for: 'M4'
timecol 'M32-x' for: 'M32'
timecol 'M44-x' for: 'M44'
timecol 'M2-x' for: 'M2'
aliases = {"t": ["time/s"], "raw_potential": ["Ewe/V", "<Ewe>/V"], "raw_current": ["I/mA", "<I>/mA"], "cycle": ["cycle number"]}
N_header_lines = 18

time/s,	Ewe/V,	I/mA,	selector,	M40-x,	M40,	M28-x,	M28,	M18-x,	M18,	M4-x,	M4,	M32-x,	M32,	M44-x,	M44,	M2-x,	M2
19.6748,	1.119307,	0.0002056183,	0,	0.859468,	3.307309e-12,	0.710553,	1.868108e-10,	0.636596,	3.636958e-09,	0.561639,	4.208231e-08,	0.78551,	1.816777e-10,	0.934425,	3.731745e-11,	0.487681,	2.345613e-09
58.613,	1.691472,	0.01682687,	0,	139.276,	3.258221e-12,	139.127,	1.77332e-10,	139.052,	3.449583e-09,	138.978,	3.955688e-08,	139.201,	1.693723e-10,	139.35,	3.947501e-11,	138.903,	2.207697e-09
98.74,	0.8891512,	-0.003550128,	0,	277.691,	2.971373e-12,	277.542,	1.78857e-10,	277.467,	3.437549e-09,	277.393,	3.950663e-08,	277.616,	1.783927e-10,	277.765,	4.7587e-11,	277.318,	2.211904e-09
138.816,	0.08749167,	-0.01624996,	0,	416.105,	3.235576e-12,	415.956,	1.829244e-10,	415.882,	3.461598e-09,	415.807,	3.918556e-08,	416.031,	3.480933e-10,	416.18,	5.684458e-11,	415.733,	2.171441e-09
178.841,	0.734987,	0.001378645,	0,	554.52,	3.218993e-12,	554.371,	1.793012e-10,	554.297,	3.412415e-09,	554.222,	3.897549e-08,	554.446,	1.720514e-10,	554.595,	4.344252e-11,	554.148,	2.212802e-09
219.014,	1.538266,	0.01472321,	1,	692.934,	3.269873e-12,	692.786,	1.742745e-10,	692.711,	3.40029e-09,	692.636,	3.915622e-08,	692.861,	1.713659e-10,	693.01,	3.600104e-11,	692.563,	2.21262e-09
259.01,	1.063231,	-0.001572817,	1,	831.351,	2.976138e-12,	831.202,	1.739764e-10,	831.127,	3.406265e-09,	831.053,	3.916689e-08,	831.276,	1.682757e-10,	831.425,	3.557692e-11,	830.978,	2.20934e-09
299.022,	0.2629509,	-0.003439047,	1,	969.764,	3.022044e-12,	969.615,	1.735329e-10,	969.54,	3.41445e-09,	969.466,	3.945688e-08,	969.689,	1.670964e-10,	969.838,	3.452402e-11,	969.391,	2.82838e-09
339.164,	0.561694,	0.0005590913,	1,	1108.18,	3.009066e-12,	1108.03,	1.703163e-10,	1107.96,	3.373718e-09,	1107.88,	3.90992e-08,	1108.11,	1.625761e-10,	1108.26,	3.37851e-11,	1107.81,	2.870391e-09
379.267,	1.363804,	0.006900229,	2,	1246.6,	2.957785e-12,	1246.45,	1.735831e-10,	1246.37,	3.416696e-09,	1246.3,	3.949956e-08,	1246.52,	1.649195e-10,	1246.67,	3.454385e-11,	1246.22,	2.224381e-09
419.152,	1.239913,	-0.0005356825,	2,	1385.01,	3.179583e-12,	1384.86,	1.695354e-10,	1384.79,	3.390664e-09,	1384.71,	3.935865e-08,	1384.93,	1.649221e-10,	1385.08,	3.465337e-11,	1384.64,	2.216349e-09
459.18,	0.4393193,	-0.0006834083,	2,	1523.42,	3.05012e-12,	1523.28,	1.694156e-10,	1523.2,	3.402573e-09,	1523.13,	3.874011e-08,	1523.35,	1.654615e-10,	1523.5,	3.491596e-11,	1523.05,	3.697191e-09
498.972,	0.3781853,	0.0003709032,	2,	1661.84,	2.781479e-12,	1661.69,	1.693892e-10,	1661.62,	3.390271e-09,	1661.54,	3.887141e-08,	1661.76,	1.606019e-10,	1661.91,	3.43504e-11,	1661.47,	3.728274e-09
538.786,	1.056656,	1.284061e-06,	3,	1800.25,	3.094956e-12,	1800.11,	1.691992e-10,	1800.03,	3.373735e-09,	1799.96,	3.887646e-08,	1800.18,	1.635076e-10,	1800.33,	3.345856e-11,	1799.88,	2.224925e-09
579.025,	0.989001,	1.703661e-06,	3,	1938.67,	3.229389e-12,	1938.52,	1.703012e-10,	1938.45,	3.404976e-09,	1938.37,	3.91228e-08,	1938.6,	1.621863e-10,	1938.74,	3.405882e-11,	1938.3,	2.220527e-09
619.136,	0.975282,	2.275842e-06,	3,	2077.08,	2.8187e-12,	2076.93,	1.687892e-10,	2076.86,	3.376473e-09,	2076.79,	3.907271e-08,	2077.01,	1.617204e-10,	2077.16,	3.484355e-11,	2076.71,	5.2815e-09
659.108,	0.9681798,	2.123261e-06,	3,	2215.5,	2.683427e-12,	2215.35,	1.582833e-10,	2215.28,	3.397615e-09,	2215.2,	3.872082e-08,	2215.42,	1.591347e-10,	2215.57,	3.375938e-11,	2215.13,	5.382766e-09
699.17,	0.9634349,	1.818097e-06,	3,	2353.91,	2.834463e-12,	2353.76,	1.564958e-10,	2353.69,	3.365155e-09,	2353.62,	3.913149e-08,	2353.84,	1.559297e-10,	2353.99,	3.334794e-11,	2353.54,	2.411729e-09
739.209,	0.960073,	1.665515e-06,	3,	2492.33,	3.028634e-12,	2492.18,	1.560659e-10,	2492.11,	3.369362e-09,	2492.03,	3.916453e-08,	2492.25,	1.565426e-10,	2492.4,	3.246287e-11,	2491.96,	2.223e-09
779.232,	0.9573643,	1.818097e-06,	3,	2630.74,	2.76598e-12,	2630.59,	1.568469e-10,	2630.52,	3.35202e-09,	2630.44,	3.893826e-08,	2630.67,	1.566665e-10,	2630.82,	3.374831e-11,	2630.37,	2.206551e-09
819.529,	0.955286,	2.04697e-06,	3,	2769.16,	2.699773e-12,	2769.01,	1.57103e-10,	2768.93,	3.391924e-09,	2768.86,	3.861825e-08,	2769.08,	1.591498e-10,	2769.23,	3.359001e-11,	2768.79,	6.998079e-09
859.769,	0.5597101,	-0.002498197,	3,	2907.57,	2.696081e-12,	2907.42,	1.553183e-10,	2907.35,	3.369599e-09,	2907.28,	3.865153e-08,	2907.5,	1.576995e-10,	2907.65,	3.514805e-11,	2907.2,	7.018587e-09
899.805,	0.1069746,	-0.002497396,	3,	3045.99,	2.900765e-12,	3045.84,	1.578137e-10,	3045.76,	3.381311e-09,	3045.69,	3.874993e-08,	3045.91,	1.559059e-10,	3046.06,	3.201101e-11,	3045.62,	2.222016e-09
939.878,	0.04673467,	-0.002497434,	3,	3184.4,	2.687121e-12,	3184.25,	1.568796e-10,	3184.18,	3.385054e-09,	3184.11,	3.854151e-08,	3184.33,	1.55651e-10,	3184.48,	3.375003e-11,	3184.03,	2.22718e-09
980.051,	0.04459525,	-0.002497472,	3,	3322.82,	2.89868e-12,	3322.67,	1.591375e-10,	3322.59,	3.358545e-09,	3322.52,	3.867765e-08,	3322.74,	1.576392e-10,	3322.89,	3.423256e-11,	3322.44,	8.539818e-09
1020.125,	0.04409096,	-0.002498388,	3,	3461.23,	2.85671e-12,	3461.08,	1.569596e-10,	3461.01,	3.383744e-09,	3460.93,	3.876587e-08,	3461.16,	1.578611e-10,	3461.31,	3.24932e-11,	3460.86,	8.584485e-09
1060.45,	0.04377005,	-0.002498273,	3,	3599.65,	2.922933e-12,	3599.5,	1.562557e-10,	3599.42,	3.330637e-09,	3599.35,	3.849894e-08,	3599.57,	1.567073e-10,	3599.72,	3.393064e-11,	3599.28,	2.27657e-09
1100.61,	0.04351026,	-0.002497548,	3,	3738.06,	2.819642e-12,	3737.91,	1.563938e-10,	3737.84,	3.321763e-09,	3737.76,	3.806451e-08,	3737.99,	1.560242e-10,	3738.14,	3.227307e-11,	3737.69,	2.209863e-09
1140.82,	0.05759605,	2.542861e-06,	3,	3876.48,	2.725265e-12,	3876.33,	1.565575e-10,	3876.25,	3.296234e-09,	3876.18,	3.825516e-08,	3876.4,	1.550163e-10,	3876.55,	3.25002e-11,	3876.11,	2.206571e-09
1180.61,	0.1003959,	2.275842e-06,	3,	4014.89,	6.243793e-10,	4014.74,	5.850782e-08,	4014.67,	2.752594e-09,	4014.59,	4.474595e-09,	4014.82,	1.225605e-08,	4014.97,	1.214064e-10,	4014.52,	1.75213e-09
1220.72,	0.1250871,	1.856242e-06,	3,	4153.31,	7.453073e-10,	4153.16,	7.045127e-08,	4153.08,	1.367883e-09,	4153.01,	9.077766e-12,	4153.23,	1.652587e-08,	4153.38,	1.006741e-10,	4152.93,	1.558614e-09
1260.87,	0.1483418,	2.237697e-06,	3,	,	,	,	,	,	,	,	,	,	,	,	,	,
1300.94,	0.1745726,	2.008824e-06,	3,	,	,	,	,	,	,	,	,	,	,	,	,	,
1341.02,	0.203833,	2.275842e-06,	3,	,	,	,	,	,	,	,	,	,	,	,	,	,
1380.92,	0.23291,	2.352133e-06,	3,	,	,	,	,	,	,	,	,	,	,	,	,	,
1421.04,	0.2588925,	1.894388e-06,	3,	,	,	,	,	,	,	,	,	,	,	,	,	,
1461.24,	0.03743202,	-0.004998326,	3,	,	,	,	,	,	,	,	,	,	,	,	,	,
1501.32,	0.03344353,	-0.004997831,	3,	,	,	,	,	,	,	,	,	,	,	,	,	,
1541.47,	0.03327161,	-0.004998364,	3,	,	,	,	,	,	,	,	,	,	,	,	,	,
1581.99,	0.0331761,	-0.004997716,	3,	,	,	,	,	,	,	,	,	,	,	,	,	,
1622.29,	0.03312643,	-0.004997754,	3,	,	,	,	,	,	,	,	,	,	,	,	,	,
1662.61,	0.03307677,	-0.004998098,	3,	,	,	,	,	,	,	,	,	,	,	,	,	,
1703,	0.03306149,	-0.004998326,	3,	,	,	,	,	,	,	,	,	,	,	,	,	,
1743.13,	0.05534966,	1.360351e-06,	3,	,	,	,	,	,	,	,	,	,	,	,	,	,
1783.19,	0.09270927,	2.428424e-06,	3,	,	,	,	,	,	,	,	,	,	,	,	,	,
1823.05,	0.1137634,	1.894388e-06,	3,	,	,	,	,	,	,	,	,	,	,	,	,	,
1863.07,	0.1320631,	1.62737e-06,	3,	,	,	,	,	,	,	,	,	,	,	,	,	,
1903.41,	0.1508595,	1.818097e-06,	3,	,	,	,	,	,	,	,	,	,	,	,	,	,
1943.51,	0.171566,	1.551079e-06,	3,	,	,	,	,	,	,	,	,	,	,	,	,	,
1983.71,	0.1946221,	2.199551e-06,	3,	,	,	,	,	,	,	,	,	,	,	,	,	,
2023.72,	0.2192903,	1.818097e-06,	3,	,	,	,	,	,	,	,	,	,	,	,	,	,
2063.88,	0.02467191,	-0.009998013,	3,	,	,	,	,	,	,	,	,	,	,	,	,	,
2103.73,	0.02427459,	-0.009998013,	3,	,	,	,	,	,	,	,	,	,	,	,	,	,
2143.64,	0.02419436,	-0.009998165,	3,	,	,	,	,	,	,	,	,	,	,	,	,	,
2183.79,	0.02415997,	-0.009998394,	3,	,	,	,	,	,	,	,	,	,	,	,	,	,
2223.71,	0.02416762,	-0.009998013,	3,	,	,	,	,	,	,	,	,	,	,	,	,	,
2264.17,	0.02408357,	-0.00999767,	3,	,	,	,	,	,	,	,	,	,	,	,	,	,
2304.21,	0.02412177,	-0.009998203,	3,	,	,	,	,	,	,	,	,	,	,	,	,	,
2343.88,	0.05097531,	2.04697e-06,	3,	,	,	,	,	,	,	,	,	,	,	,	,	,
2383.84,	0.08671889,	1.932533e-06,	3,	,	,	,	,	,	,	,	,	,	,	,	,	,
2423.41,	0.104904,	2.085115e-06,	3,	,	,	,	,	,	,	,	,	,	,	,	,	,
2463.62,	0.1208006,	2.085115e-06,	3,	,	,	,	,	,	,	,	,	,	,	,	,	,
2503.71,	0.1358568,	1.970679e-06,	3,	,	,	,	,	,	,	,	,	,	,	,	,	,
2543.77,	0.1516617,	2.123261e-06,	3,	,	,	,	,	,	,	,	,	,	,	,	,	,
2583.89,	0.1688879,	2.161406e-06,	3,	,	,	,	,	,	,	,	,	,	,	,	,	,
2623.74,	0.1876346,	2.085115e-06,	3,	,	,	,	,	,	,	,	,	,	,	,	,	,
2664.05,	0.01969394,	-0.01499785,	3,	,	,	,	,	,	,	,	,	,	,	,	,	,
2704.04,	0.01947617,	-0.01499785,	3,	,	,	,	,	,	,	,	,	,	,	,	,	,
2744.07,	0.01938066,	-0.01499778,	3,	,	,	,	,	,	,	,	,	,	,	,	,	,
2783.95,	0.0193692,	-0.01499812,	3,	,	,	,	,	,	,	,	,	,	,	,	,	,
2824.19,	0.01933864,	-0.01499778,	3,	,	,	,	,	,	,	,	,	,	,	,	,	,
2864.42,	0.01929662,	-0.01499732,	3,	,	,	,	,	,	,	,	,	,	,	,	,	,
2904.59,	0.01930808,	-0.01499797,	3,	,	,	,	,	,	,	,	,	,	,	,	,	,
2944.46,	0.04811765,	1.894388e-06,	3,	,	,	,	,	,	,	,	,	,	,	,	,	,
2984.03,	0.08228342,	1.970679e-06,	3,	,	,	,	,	,	,	,	,	,	,	,	,	,
3024.15,	0.09934911,	1.856242e-06,	3,	,	,	,	,	,	,	,	,	,	,	,	,	,
3064.31,	0.1139239,	2.237697e-06,	3,	,	,	,	,	,	,	,	,	,	,	,	,	,
3104.66,	0.1275589,	2.161406e-06,	3,	,	,	,	,	,	,	,	,	,	,	,	,	,
3144.8,	0.1413581,	1.589224e-06,	3,	,	,	,	,	,	,	,	,	,	,	,	,	,
3184.7,	0.1558871,	1.970679e-06,	3,	,	,	,	,	,	,	,	,	,	,	,	,	,
3224.85,	0.1716386,	2.161406e-06,	3,	,	,	,	,	,	,	,	,	,	,	,	,	,
3264.77,	0.01636637,	-0.01999845,	3,	,	,	,	,	,	,	,	,	,	,	,	,	,
3304.88,	0.01621738,	-0.01999765,	3,	,	,	,	,	,	,	,	,	,	,	,	,	,
3344.98,	0.01614097,	-0.01999823,	3,	,	,	,	,	,	,	,	,	,	,	,	,	,
3384.84,	0.01615243,	-0.01999819,	3,	,	,	,	,	,	,	,	,	,	,	,	,	,
3424.97,	0.01613333,	-0.01999853,	3,	,	,	,	,	,	,	,	,	,	,	,	,	,
3465.01,	0.01606838,	-0.01999788,	3,	,	,	,	,	,	,	,	,	,	,	,	,	,
3505.18,	0.01609131,	-0.01999788,	3,	,	,	,	,	,	,	,	,	,	,	,	,	,
3545.38,	0.04654365,	1.894388e-06,	3,	,	,	,	,	,	,	,	,	,	,	,	,	,
3585.3,	0.07898642,	2.085115e-06,	3,	,	,	,	,	,	,	,	,	,	,	,	,	,
3625.62,	0.09483723,	1.894388e-06,	3,	,	,	,	,	,	,	,	,	,	,	,	,	,
3665.73,	0.1083347,	1.703661e-06,	3,	,	,	,	,	,	,	,	,	,	,	,	,	,
3705.93,	0.1208579,	1.551079e-06,	3,	,	,	,	,	,	,	,	,	,	,	,	,	,
3746.05,	0.1331634,	1.665515e-06,	3,	,	,	,	,	,	,	,	,	,	,	,	,	,
3786.3,	0.1458968,	1.894388e-06,	3,	,	,	,	,	,	,	,	,	,	,	,	,	,
3826.22,	0.1595547,	2.161406e-06,	3,	,	,	,	,	,	,	,	,	,	,	,	,	,
3836.11,	0.1630885,	1.970679e-06,	3,	,	,	,	,	,	,	,	,	,	,	,	,	,