File: Quantification/development/HER_repeatability_single_day/HERonPt_RnD1_1.csv
ixdat version = 0.2.3
name = 2022-04-26 12_31_02 HER_repetition_1 AND 2022-04-26 12_31_02 HER_repetition_1_01_01_CVA_DUSB0_C01.mpt AND 2022-04-26 12_31_02 HER_repetition_1_01_02_CP_DUSB0_C01.mpt
technique = EC-MS
tstamp = 1650969062.0
backend_name = BackendBase(none, address=none)
id = 4
timecol 'time/s' for: 'Ewe/V' and 'raw_current' and 'selector'
timecol 'C3M32 time [s]' for: 'M32'
timecol 'C5M44 time [s]' for: 'M44'
timecol 'C6M18 time [s]' for: 'M18'
timecol 'C4M40 time [s]' for: 'M40'
timecol 'C0M2 time [s]' for: 'M2'
timecol 'C1M4 time [s]' for: 'M4'
timecol 'C2M28 time [s]' for: 'M28'
aliases = {"M2": ["M2 [A]"], "M4": ["M4 [A]"], "M28": ["M28 [A]"], "M32": ["M32 [A]"], "M40": ["M40 [A]"], "M44": ["M44 [A]"], "M18": ["M18 [A]"], "t": ["time/s"], "raw_potential": ["Ewe/V"], "raw_current": ["<I>/mA", "I/mA"], "cycle": ["cycle number"]}
N_header_lines = 18

time/s,	Ewe/V,	raw_current,	selector,	C3M32 time [s],	M32,	C5M44 time [s],	M44,	C6M18 time [s],	M18,	C4M40 time [s],	M40,	C0M2 time [s],	M2,	C1M4 time [s],	M4,	C2M28 time [s],	M28
286.0,	0.944562,	0.00012622,	0,	0.745576,	2.17332e-08,	0.89472,	8.293296e-11,	0.969792,	1.631994e-09,	0.820648,	8.704558e-10,	0.52236,	1.663969e-09,	0.596432,	1.046065e-11,	0.671504,	8.680396e-08
341.476,	1.54768,	0.00153971,	0,	93.0211,	2.163033e-08,	93.1701,	8.752169e-11,	93.2441,	1.591555e-09,	93.0951,	8.818186e-10,	92.7971,	1.663147e-09,	92.8721,	3.395898e-10,	92.9461,	8.541426e-08
390.65,	0.5641697,	-0.00371419,	0,	185.299,	1.764943e-09,	185.448,	5.452317e-11,	185.522,	3.997922e-09,	185.373,	6.618614e-11,	185.075,	2.073008e-09,	185.15,	3.541152e-08,	185.224,	6.531627e-09
439.457,	0.433733,	-0.000622093,	0,	277.575,	1.001625e-09,	277.724,	3.594839e-11,	277.799,	4.223095e-09,	277.65,	3.174538e-11,	277.352,	2.115223e-09,	277.426,	3.71731e-08,	277.501,	2.888404e-09
488.257,	1.40973,	0.010586,	1,	369.851,	7.409544e-10,	370,	4.962248e-11,	370.075,	4.119678e-09,	369.926,	2.16571e-11,	369.628,	2.084232e-09,	369.702,	3.761119e-08,	369.777,	1.679165e-09
537.143,	1.013925,	-0.00157177,	1,	462.129,	7.670538e-10,	462.278,	4.133508e-11,	462.353,	4.128407e-09,	462.204,	2.542356e-11,	461.906,	2.188743e-09,	461.98,	3.726073e-08,	462.055,	2.537873e-09
586.317,	0.030433,	-0.048387,	1,	554.405,	5.199419e-10,	554.554,	5.267435e-11,	554.628,	4.005645e-09,	554.479,	1.394969e-11,	554.181,	2.130244e-09,	554.256,	3.729281e-08,	554.33,	8.375883e-10
634.75,	0.959916,	0.00379794,	2,	646.682,	5.483573e-10,	646.831,	5.401304e-11,	646.905,	4.00257e-09,	646.756,	1.557237e-11,	646.458,	2.152011e-09,	646.533,	3.717973e-08,	646.607,	9.66351e-10
683.636,	1.46366,	0.000275622,	2,	738.958,	4.639532e-10,	739.107,	4.308102e-11,	739.182,	3.974453e-09,	739.033,	1.217295e-11,	738.735,	2.180544e-09,	738.809,	3.796412e-08,	738.884,	6.757486e-10
732.81,	0.480189,	-0.00175025,	2,	831.234,	5.314776e-10,	831.383,	7.170522e-11,	831.458,	3.941442e-09,	831.309,	1.271117e-11,	831.011,	2.184922e-09,	831.085,	3.706344e-08,	831.16,	8.333205e-10
781.618,	0.517642,	-0.000400149,	2,	923.512,	4.29949e-10,	923.661,	3.733249e-11,	923.736,	3.970697e-09,	923.587,	1.083651e-11,	923.289,	3.631335e-09,	923.363,	3.814602e-08,	923.438,	5.408709e-10
830.417,	1.49369,	0.0116891,	3,	1015.79,	1.612977e-09,	1015.94,	7.168263e-11,	1016.01,	3.942224e-09,	1015.86,	1.070419e-11,	1015.57,	2.161268e-09,	1015.64,	3.671975e-08,	1015.71,	5.47316e-10
879.304,	0.929965,	-0.00308931,	3,	1108.07,	6.846335e-10,	1108.21,	3.537228e-11,	1108.29,	3.996794e-09,	1108.14,	2.584078e-11,	1107.84,	2.327188e-09,	1107.92,	3.707527e-08,	1107.99,	2.635075e-09
928.111,	0.0680649,	0.00814735,	3,	1200.34,	5.236399e-10,	1200.49,	4.881975e-11,	1200.57,	3.930846e-09,	1200.42,	1.029282e-11,	1200.12,	2.209699e-09,	1200.19,	3.750033e-08,	1200.27,	6.110288e-10
976.91,	1.04389,	0.00554734,	4,	1292.62,	4.73077e-10,	1292.77,	3.100749e-11,	1292.84,	3.88175e-09,	1292.69,	1.456086e-11,	1292.39,	2.230432e-09,	1292.47,	3.760753e-08,	1292.54,	1.319054e-09
1025.8,	1.37973,	-0.00026646,	4,	1384.89,	5.327649e-10,	1385.04,	3.187507e-11,	1385.12,	3.871962e-09,	1384.97,	1.524459e-11,	1384.67,	2.245093e-09,	1384.75,	3.696012e-08,	1384.82,	1.479176e-09
1074.97,	0.396252,	-0.0017568,	4,	1477.17,	4.310981e-10,	1477.32,	2.913426e-11,	1477.39,	3.888759e-09,	1477.24,	1.024726e-11,	1476.95,	2.263936e-09,	1477.02,	3.723597e-08,	1477.1,	6.73834e-10
1123.78,	0.601654,	-0.000258773,	4,	1569.45,	4.139278e-10,	1569.6,	2.837095e-11,	1569.67,	3.920835e-09,	1569.52,	9.419466e-12,	1569.22,	2.300796e-09,	1569.3,	3.769799e-08,	1569.37,	5.35837e-10
1172.58,	1.57767,	0.0209431,	5,	1661.72,	3.828417e-10,	1661.87,	2.767876e-11,	1661.95,	3.917688e-09,	1661.8,	9.385901e-12,	1661.5,	2.314255e-09,	1661.58,	3.762585e-08,	1661.65,	4.84297e-10
1221.46,	0.845954,	-0.00676535,	5,	1754,	3.756114e-10,	1754.15,	2.728178e-11,	1754.22,	3.839136e-09,	1754.08,	8.243458e-12,	1753.78,	2.882625e-09,	1753.85,	3.746154e-08,	1753.93,	4.597921e-10
1270.27,	0.152013,	0.00666466,	5,	1846.28,	3.653461e-10,	1846.43,	2.735497e-11,	1846.5,	3.923658e-09,	1846.35,	8.020779e-12,	1846.06,	2.971377e-09,	1846.13,	3.858253e-08,	1846.2,	4.127913e-10
1339.47,	0.916726,	2.19955e-06,	6,	1938.56,	5.104869e-10,	1938.7,	2.692415e-11,	1938.78,	3.879071e-09,	1938.63,	1.62636e-11,	1938.33,	2.357519e-09,	1938.41,	3.773495e-08,	1938.48,	1.793353e-09
1503.47,	0.947243,	2.504715e-06,	6,	2030.83,	3.536217e-10,	2030.98,	2.703838e-11,	2031.05,	3.881351e-09,	2030.9,	7.786855e-12,	2030.61,	2.362093e-09,	2030.68,	3.773131e-08,	2030.76,	3.831321e-10
1634.25,	0.409233,	-0.00249778,	7,	2123.11,	3.492378e-10,	2123.26,	3.050897e-11,	2123.33,	3.80157e-09,	2123.18,	7.898714e-12,	2122.88,	2.347719e-09,	2122.96,	3.767951e-08,	2123.03,	3.939161e-10
1791.69,	0.0493023,	-0.00249698,	7,	2215.38,	3.454574e-10,	2215.53,	2.808522e-11,	2215.61,	3.851805e-09,	2215.46,	7.663787e-12,	2215.16,	2.368198e-09,	2215.24,	3.825149e-08,	2215.31,	3.661742e-10
1954,	0.124828,	1.97068e-06,	8,	2307.66,	3.406201e-10,	2307.81,	2.680364e-11,	2307.88,	3.954336e-09,	2307.74,	1.170071e-11,	2307.44,	4.063319e-09,	2307.51,	3.836061e-08,	2307.59,	3.592458e-10
2115.01,	0.619981,	2.19955e-06,	8,	2399.94,	3.294337e-10,	2400.09,	2.549655e-11,	2400.16,	3.835137e-09,	2400.01,	6.804254e-12,	2399.71,	4.084038e-09,	2399.79,	3.74635e-08,	2399.86,	3.439148e-10
2223.61,	0.1637,	-0.00499726,	9,	2492.21,	3.463526e-10,	2492.36,	2.528563e-11,	2492.44,	3.870519e-09,	2492.29,	7.428569e-12,	2491.99,	4.089011e-09,	2492.07,	3.759445e-08,	2492.14,	5.124847e-10
2387.3,	0.03691281,	-0.00499726,	9,	2584.49,	3.251116e-10,	2584.64,	2.582901e-11,	2584.71,	3.826165e-09,	2584.57,	6.800571e-12,	2584.27,	2.408685e-09,	2584.34,	3.79301e-08,	2584.42,	3.491452e-10
2550,	0.106119,	2.77173e-06,	10,	2676.77,	4.629996e-10,	2676.92,	2.555714e-11,	2676.99,	3.793656e-09,	2676.84,	1.432579e-11,	2676.54,	2.379859e-09,	2676.62,	3.688333e-08,	2676.69,	1.741646e-09
2714,	0.299825,	2.54286e-06,	10,	2769.04,	3.15642e-10,	2769.19,	2.537426e-11,	2769.27,	3.884064e-09,	2769.12,	6.287946e-12,	2768.82,	2.403596e-09,	2768.89,	3.83679e-08,	2768.97,	3.166835e-10
2823.91,	0.0348842,	-0.0099974,	11,	2861.32,	3.138769e-10,	2861.47,	2.699971e-11,	2861.54,	3.872815e-09,	2861.39,	6.095853e-12,	2861.1,	6.017617e-09,	2861.17,	3.781605e-08,	2861.24,	3.13915e-10
2987.91,	0.0273657,	-0.00999729,	11,	2953.6,	3.123474e-10,	2953.75,	2.515166e-11,	2953.82,	3.877313e-09,	2953.67,	6.76965e-12,	2953.37,	6.134242e-09,	2953.45,	3.870986e-08,	2953.52,	3.064026e-10
3150,	0.094681,	1.97068e-06,	12,	3045.87,	3.311029e-10,	3046.02,	2.575872e-11,	3046.1,	3.836203e-09,	3045.95,	7.364078e-12,	3045.65,	6.176804e-09,	3045.72,	3.844428e-08,	3045.8,	5.37905e-10
3314,	0.234771,	2.504715e-06,	12,	3138.15,	3.085591e-10,	3138.3,	2.539268e-11,	3138.375,	3.793457e-09,	3138.23,	6.244802e-12,	3137.93,	2.495987e-09,	3138,	3.772008e-08,	3138.08,	3.401971e-10
3450.41,	0.0226207,	-0.01499808,	13,	3230.43,	3.105253e-10,	3230.58,	2.527642e-11,	3230.65,	3.756763e-09,	3230.5,	6.34206e-12,	3230.2,	2.425156e-09,	3230.28,	3.813875e-08,	3230.35,	3.807939e-10
3614.41,	0.0222692,	-0.014998,	13,	3322.7,	3.033803e-10,	3322.85,	2.509265e-11,	3322.93,	3.866783e-09,	3322.78,	5.581037e-12,	3322.48,	2.442415e-09,	3322.56,	3.786118e-08,	3322.63,	2.930386e-10
3777,	0.0986465,	2.2377e-06,	14,	3414.98,	2.997385e-10,	3415.13,	2.463533e-11,	3415.2,	3.7812e-09,	3415.05,	5.648639e-12,	3414.76,	2.566894e-09,	3414.83,	3.770698e-08,	3414.9,	2.898593e-10
3941,	0.183517,	2.39028e-06,	14,	3507.26,	2.961051e-10,	3507.4,	2.455816e-11,	3507.48,	3.867154e-09,	3507.33,	5.228808e-12,	3507.03,	8.191943e-09,	3507.11,	3.760074e-08,	3507.18,	2.809157e-10
4087.91,	0.0190181,	-0.0199972,	15,	3599.53,	2.894249e-10,	3599.68,	2.450476e-11,	3599.76,	3.854447e-09,	3599.61,	5.270053e-12,	3599.31,	8.261285e-09,	3599.38,	3.835343e-08,	3599.46,	2.689106e-10
4251.91,	0.0189302,	-0.0199973,	15,	3691.81,	2.900624e-10,	3691.96,	2.56594e-11,	3692.04,	3.876629e-09,	3691.89,	4.941018e-12,	3691.59,	8.253708e-09,	3691.66,	3.77393e-08,	3691.74,	2.573644e-10
4414,	0.109982,	1.97068e-06,	16,	3784.09,	2.883969e-10,	3784.24,	2.423435e-11,	3784.31,	3.802346e-09,	3784.16,	4.795794e-12,	3783.86,	2.503093e-09,	3783.94,	3.828789e-08,	3784.01,	2.536834e-10
4578,	0.19123,	2.42842e-06,	16,	3876.36,	2.841215e-10,	3876.51,	2.496921e-11,	3876.59,	3.758895e-09,	3876.44,	4.809165e-12,	3876.14,	2.46532e-09,	3876.21,	3.723083e-08,	3876.29,	2.515388e-10
,	,	,	,	3968.64,	2.813564e-10,	3968.79,	2.426689e-11,	3968.86,	3.78726e-09,	3968.71,	4.862993e-12,	3968.42,	2.464001e-09,	3968.49,	3.757555e-08,	3968.57,	2.51566e-10
,	,	,	,	4060.92,	2.783645e-10,	4061.07,	2.431468e-11,	4061.14,	3.804265e-09,	4060.99,	4.758356e-12,	4060.69,	1.019796e-08,	4060.77,	3.762658e-08,	4060.84,	2.432768e-10
,	,	,	,	4153.19,	2.815864e-10,	4153.34,	2.446073e-11,	4153.42,	3.832456e-09,	4153.27,	4.528813e-12,	4152.97,	1.029615e-08,	4153.05,	3.832423e-08,	4153.12,	2.456214e-10
,	,	,	,	4245.47,	2.798829e-10,	4245.62,	2.433813e-11,	4245.69,	3.848317e-09,	4245.55,	4.381361e-12,	4245.25,	1.031052e-08,	4245.32,	3.747358e-08,	4245.4,	2.445809e-10
,	,	,	,	4337.75,	2.758345e-10,	4337.9,	2.447758e-11,	4337.97,	3.749141e-09,	4337.82,	4.756693e-12,	4337.52,	2.701838e-09,	4337.6,	3.825149e-08,	4337.67,	2.530063e-10
,	,	,	,	4430.02,	2.748275e-10,	4430.17,	2.337361e-11,	4430.25,	3.785375e-09,	4430.1,	4.342649e-12,	4429.8,	2.511446e-09,	4429.87,	3.748892e-08,	4429.95,	2.319408e-10
,	,	,	,	4522.3,	2.761664e-10,	4522.45,	2.446228e-11,	4522.52,	3.780201e-09,	4522.375,	4.729824e-12,	4522.08,	2.495576e-09,	4522.15,	3.733901e-08,	4522.23,	2.344178e-10
,	,	,	,	4614.58,	2.745139e-10,	4614.73,	2.442029e-11,	4614.8,	3.748803e-09,	4614.65,	4.502594e-12,	4614.35,	2.509853e-09,	4614.43,	3.75543e-08,	4614.5,	2.353615e-10
,	,	,	,	4706.85,	2.729969e-10,	4707,	2.40875e-11,	4707.08,	3.760324e-09,	4706.93,	4.412785e-12,	4706.63,	2.508509e-09,	4706.7,	3.778389e-08,	4706.78,	2.359115e-10
,	,	,	,	4799.13,	2.749546e-10,	4799.28,	2.407653e-11,	4799.35,	3.780987e-09,	4799.2,	5.078961e-12,	4798.91,	2.515178e-09,	4798.98,	3.777986e-08,	4799.06,	2.843993e-10
,	,	,	,	4891.41,	2.699461e-10,	4891.56,	2.805761e-11,	4891.63,	3.773294e-09,	4891.48,	4.267918e-12,	4891.18,	2.518428e-09,	4891.26,	3.750445e-08,	4891.33,	2.321906e-10
,	,	,	,	4900.41,	2.678222e-10,	4900.56,	2.836352e-11,	4900.63,	3.760062e-09,	4900.48,	4.401961e-12,	4900.19,	2.504814e-09,	4900.26,	3.810235e-08,	4900.34,	2.345588e-10