File: Quantification/development/HER_repeatability_single_day/HERonPt_RnD1_2.csv
ixdat version = 0.2.3
name = 2022-04-26 13_53_02 HER_repetition_2 AND 2022-04-26 13_53_02 HER_repetition_2_01_01_CVA_DUSB0_C01.mpt AND 2022-04-26 13_53_02 HER_repetition_2_01_02_CP_DUSB0_C01.mpt
technique = EC-MS
tstamp = 1650973982.0
backend_name = BackendBase(none, address=none)
id = 35
timecol 'time/s' for: 'Ewe/V' and 'raw_current' and 'selector'
timecol 'C0M2 time [s]' for: 'M2'
timecol 'C3M32 time [s]' for: 'M32'
timecol 'C4M40 time [s]' for: 'M40'
timecol 'C5M44 time [s]' for: 'M44'
timecol 'C2M28 time [s]' for: 'M28'
timecol 'C6M18 time [s]' for: 'M18'
timecol 'C1M4 time [s]' for: 'M4'
aliases = {"M2": ["M2 [A]"], "M4": ["M4 [A]"], "M28": ["M28 [A]"], "M32": ["M32 [A]"], "M40": ["M40 [A]"], "M44": ["M44 [A]"], "M18": ["M18 [A]"], "t": ["time/s"], "raw_potential": ["Ewe/V"], "raw_current": ["I/mA", "<I>/mA"], "cycle": ["cycle number"]}
N_header_lines = 18

time/s,	Ewe/V,	raw_current,	selector,	C0M2 time [s],	M2,	C3M32 time [s],	M32,	C4M40 time [s],	M40,	C5M44 time [s],	M44,	C2M28 time [s],	M28,	C6M18 time [s],	M18,	C1M4 time [s],	M4
55.0,	0.742108,	-3.4102e-05,	0,	0.481083,	2.607795e-09,	0.70517,	2.796816e-10,	0.779199,	4.591517e-12,	0.854228,	2.706022e-11,	0.630141,	2.399671e-10,	0.928257,	3.854992e-09,	0.556112,	4.02997e-08
108.05,	1.60289,	0.0330434,	0,	87.1312,	2.527748e-09,	87.3542,	2.731686e-10,	87.4292,	4.324576e-12,	87.5032,	3.767148e-11,	87.2802,	2.340334e-10,	87.5782,	3.749037e-09,	87.2052,	3.756256e-08
153.578,	0.887387,	-0.00490191,	0,	173.781,	2.484967e-09,	174.004,	2.753826e-10,	174.079,	4.279794e-12,	174.153,	3.610255e-11,	173.93,	2.323517e-10,	174.228,	3.734784e-09,	173.855,	3.727022e-08
199.102,	0.04424724,	0.01877,	0,	260.431,	2.496279e-09,	260.655,	2.731252e-10,	260.729,	4.292706e-12,	260.804,	3.911046e-11,	260.58,	2.333933e-10,	260.878,	3.7549e-09,	260.506,	3.735728e-08
244.963,	0.9614861,	0.00617493,	1,	347.081,	2.490449e-09,	347.305,	2.73474e-10,	347.379,	4.49582e-12,	347.454,	3.064896e-11,	347.23,	2.286031e-10,	347.528,	3.769884e-09,	347.156,	3.732079e-08
290.536,	1.5279,	0.000718922,	1,	433.73,	2.521277e-09,	433.954,	2.723302e-10,	434.029,	4.205573e-12,	434.103,	3.709343e-11,	433.879,	2.273843e-10,	434.178,	3.720324e-09,	433.806,	3.730584e-08
336.711,	0.604364,	-0.00328365,	1,	520.381,	2.493707e-09,	520.604,	2.711076e-10,	520.679,	3.966205e-12,	520.753,	2.957407e-11,	520.53,	2.252536e-10,	520.828,	3.732049e-09,	520.455,	3.820054e-08
382.175,	0.326121,	0.00396417,	1,	607.032,	2.510601e-09,	607.255,	2.80625e-10,	607.33,	4.220554e-12,	607.404,	3.601584e-11,	607.181,	2.268822e-10,	607.479,	3.711378e-09,	607.106,	3.82369e-08
428.036,	1.24335,	0.00724498,	2,	693.68,	2.497105e-09,	693.904,	2.741924e-10,	693.978,	4.23003e-12,	694.053,	2.738885e-11,	693.829,	2.3015e-10,	694.127,	3.772076e-09,	693.755,	3.692416e-08
473.924,	1.23975,	-0.000626059,	2,	780.331,	2.513186e-09,	780.555,	3.541822e-10,	780.629,	4.434329e-12,	780.704,	3.678498e-11,	780.48,	2.279527e-10,	780.778,	3.749153e-09,	780.406,	3.743209e-08
520.1,	0.316104,	-0.00416485,	2,	866.981,	2.508556e-09,	867.205,	2.68956e-10,	867.279,	4.359155e-12,	867.354,	2.712441e-11,	867.13,	2.238519e-10,	867.428,	3.725642e-09,	867.056,	3.696695e-08
565.549,	0.613939,	0.000826764,	2,	953.631,	2.472501e-09,	953.854,	8.476144e-10,	953.929,	4.296056e-12,	954.003,	3.734987e-11,	953.78,	2.27183e-10,	954.078,	3.67992e-09,	953.705,	3.676177e-08
611.41,	1.53124,	0.0127878,	3,	1040.28,	5.232598e-09,	1040.5,	2.721312e-10,	1040.58,	4.110852e-12,	1040.65,	2.700545e-11,	1040.43,	2.150112e-10,	1040.73,	3.755015e-09,	1040.36,	3.717055e-08
657.312,	0.951577,	-0.00305487,	3,	1126.93,	2.51932e-09,	1127.15,	2.627006e-10,	1127.23,	4.155803e-12,	1127.3,	2.519737e-11,	1127.08,	2.119337e-10,	1127.38,	3.725984e-09,	1127.01,	3.792771e-08
703.488,	0.0279843,	-0.0538208,	3,	1213.58,	2.520527e-09,	1213.8,	2.601989e-10,	1213.88,	4.160304e-12,	1213.95,	2.440466e-11,	1213.73,	2.155939e-10,	1214.03,	3.695411e-09,	1213.65,	3.688288e-08
748.607,	0.895564,	0.00651619,	4,	1300.23,	2.510161e-09,	1300.45,	2.625734e-10,	1300.53,	3.684103e-12,	1300.6,	2.381345e-11,	1300.38,	2.114562e-10,	1300.68,	3.725291e-09,	1300.31,	3.721916e-08
794.525,	1.586957,	0.0037322,	4,	1386.88,	2.518082e-09,	1387.1,	2.581729e-10,	1387.18,	3.830948e-12,	1387.25,	2.425096e-11,	1387.03,	2.081852e-10,	1387.33,	3.739264e-09,	1386.95,	3.772399e-08
840.701,	0.663383,	-0.00963257,	4,	1473.53,	3.27398e-09,	1473.75,	2.615802e-10,	1473.83,	3.955964e-12,	1473.9,	2.360372e-11,	1473.68,	2.107768e-10,	1473.98,	3.727065e-09,	1473.61,	3.695063e-08
886.12,	0.266156,	0.00486201,	4,	1560.18,	3.352574e-09,	1560.4,	2.572158e-10,	1560.48,	3.933344e-12,	1560.55,	2.33279e-11,	1560.33,	2.107615e-10,	1560.63,	3.68617e-09,	1560.26,	3.706625e-08
931.981,	1.18339,	0.00661374,	5,	1646.83,	3.381134e-09,	1647.05,	2.564961e-10,	1647.13,	4.159252e-12,	1647.2,	2.318739e-11,	1646.98,	2.180127e-10,	1647.28,	3.720278e-09,	1646.9,	3.713489e-08
977.899,	1.29908,	-0.000504821,	5,	1733.48,	2.53421e-09,	1733.7,	2.578974e-10,	1733.78,	3.946524e-12,	1733.85,	2.392275e-11,	1733.63,	2.098061e-10,	1733.93,	3.707766e-09,	1733.56,	3.684833e-08
1024.07,	0.375513,	-0.00181771,	5,	1820.13,	2.54291e-09,	1820.35,	2.558832e-10,	1820.43,	4.037043e-12,	1820.5,	2.346519e-11,	1820.28,	2.096189e-10,	1820.58,	3.70938e-09,	1820.2,	3.71251e-08
1069.49,	0.553896,	0.000579068,	5,	1906.78,	2.551529e-09,	1907,	2.62974e-10,	1907.08,	4.495678e-12,	1907.15,	2.329729e-11,	1906.93,	2.561429e-10,	1907.23,	3.711181e-09,	1906.86,	3.689389e-08
1200,	0.833751,	2.04697e-06,	6,	1993.43,	2.760477e-09,	1993.65,	2.551828e-10,	1993.73,	4.011136e-12,	1993.8,	2.398612e-11,	1993.58,	2.104292e-10,	1993.88,	3.678037e-09,	1993.51,	3.694446e-08
1354,	0.88146,	2.84802e-06,	6,	2080.08,	4.369604e-09,	2080.31,	2.57103e-10,	2080.38,	4.164928e-12,	2080.45,	2.351776e-11,	2080.23,	2.09057e-10,	2080.53,	3.701716e-09,	2080.16,	3.687965e-08
1471.83,	0.048034,	-0.00249743,	7,	2166.73,	4.389985e-09,	2166.95,	2.547475e-10,	2167.03,	3.991728e-12,	2167.1,	2.409112e-11,	2166.88,	2.090427e-10,	2167.18,	3.698796e-09,	2166.81,	3.660515e-08
1625.83,	0.0463759,	-0.0024969,	7,	2253.38,	4.38648e-09,	2253.6,	2.542995e-10,	2253.68,	3.960061e-12,	2253.75,	2.324167e-11,	2253.53,	2.098459e-10,	2253.83,	3.743922e-09,	2253.45,	3.773857e-08
1778,	0.127384,	2.27584e-06,	8,	2340.03,	2.57486e-09,	2340.25,	2.525572e-10,	2340.33,	4.101331e-12,	2340.4,	2.326213e-11,	2340.18,	2.084176e-10,	2340.48,	3.680367e-09,	2340.11,	3.760391e-08
1932,	0.226442,	3.03875e-06,	8,	2426.68,	2.562044e-09,	2426.9,	2.570029e-10,	2426.98,	4.230323e-12,	2427.05,	2.363884e-11,	2426.83,	2.324868e-10,	2427.13,	3.700015e-09,	2426.76,	3.67381e-08
2078.91,	0.0367103,	-0.00499737,	9,	2513.33,	2.562872e-09,	2513.56,	2.522443e-10,	2513.63,	4.156605e-12,	2513.7,	2.288665e-11,	2513.48,	2.068536e-10,	2513.78,	3.706589e-09,	2513.41,	3.760028e-08
2232.91,	0.0365346,	-0.00499733,	9,	2599.98,	6.088444e-09,	2600.2,	2.519608e-10,	2600.28,	3.857018e-12,	2600.35,	2.345054e-11,	2600.13,	2.079148e-10,	2600.43,	3.733259e-09,	2600.06,	3.66069e-08
2385,	0.122654,	2.69544e-06,	10,	2686.63,	6.334579e-09,	2686.85,	2.530633e-10,	2686.93,	3.946753e-12,	2687,	2.38461e-11,	2686.78,	2.074661e-10,	2687.08,	3.702208e-09,	2686.7,	3.659004e-08
2539,	0.205419,	2.6573e-06,	10,	2773.28,	6.39152e-09,	2773.51,	2.640783e-10,	2773.58,	4.548828e-12,	2773.65,	2.254403e-11,	2773.43,	2.948351e-10,	2773.73,	3.740653e-09,	2773.36,	3.654257e-08
2680.53,	0.0278776,	-0.009997746,	11,	2859.93,	6.376799e-09,	2860.15,	2.504746e-10,	2860.23,	3.792913e-12,	2860.3,	2.282825e-11,	2860.08,	2.073961e-10,	2860.38,	3.707426e-09,	2860.01,	3.643442e-08
2834.53,	0.02774387,	-0.009997746,	11,	2946.58,	2.591634e-09,	2946.81,	2.48189e-10,	2946.88,	3.516803e-12,	2946.95,	2.345747e-11,	2946.73,	2.027938e-10,	2947.03,	3.662489e-09,	2946.66,	3.631441e-08
2987,	0.117061,	2.46657e-06,	12,	3033.23,	2.574454e-09,	3033.45,	2.643587e-10,	3033.53,	4.555723e-12,	3033.6,	2.289073e-11,	3033.38,	2.637833e-10,	3033.68,	3.635362e-09,	3033.31,	3.618896e-08
3141,	0.189515,	1.77995e-06,	12,	3119.88,	2.574255e-09,	3120.1,	2.489567e-10,	3120.18,	3.80309e-12,	3120.25,	2.281346e-11,	3120.03,	2.091122e-10,	3120.33,	3.596206e-09,	3119.95,	3.650664e-08
3281.52,	0.0231136,	-0.0149983,	13,	3206.53,	8.188549e-09,	3206.76,	2.522003e-10,	3206.83,	3.819909e-12,	3206.9,	2.363501e-11,	3206.68,	2.129923e-10,	3206.98,	3.700996e-09,	3206.61,	3.737474e-08
3435.52,	0.0230295,	-0.014998,	13,	3293.18,	8.331202e-09,	3293.4,	2.524235e-10,	3293.48,	3.794224e-12,	3293.55,	2.225984e-11,	3293.33,	2.37823e-10,	3293.63,	3.713812e-09,	3293.26,	3.718914e-08
3588,	0.1123923,	2.46657e-06,	14,	3379.83,	8.360288e-09,	3380.06,	2.63721e-10,	3380.13,	4.558052e-12,	3380.2,	2.251766e-11,	3379.98,	2.798499e-10,	3380.28,	3.728022e-09,	3379.91,	3.652837e-08
3742,	0.177282,	2.77173e-06,	14,	3466.48,	8.374455e-09,	3466.7,	2.479891e-10,	3466.78,	3.686317e-12,	3466.85,	2.209065e-11,	3466.63,	2.068692e-10,	3466.93,	3.672691e-09,	3466.56,	3.635921e-08
3882.43,	0.01993881,	-0.0199975,	15,	3553.13,	2.612773e-09,	3553.35,	2.434181e-10,	3553.43,	4.136985e-12,	3553.5,	2.281882e-11,	3553.28,	2.03755e-10,	3553.58,	3.623059e-09,	3553.2,	3.605446e-08
4036.43,	0.0198777,	-0.0199975,	15,	3639.78,	2.579153e-09,	3640.01,	2.494296e-10,	3640.08,	4.032072e-12,	3640.15,	2.271399e-11,	3639.93,	2.019545e-10,	3640.23,	3.61037e-09,	3639.86,	3.644286e-08
4189,	0.107701,	2.58101e-06,	16,	3726.43,	2.584198e-09,	3726.65,	2.45305e-10,	3726.73,	3.876603e-12,	3726.8,	2.307611e-11,	3726.58,	2.044522e-10,	3726.88,	3.619089e-09,	3726.51,	3.643569e-08
4343,	0.164617,	2.16141e-06,	16,	3813.08,	1.015644e-08,	3813.31,	2.479277e-10,	3813.38,	3.985451e-12,	3813.45,	2.251554e-11,	3813.23,	2.045247e-10,	3813.53,	3.723868e-09,	3813.16,	3.609311e-08
,	,	,	,	3899.73,	1.02641e-08,	3899.95,	2.472336e-10,	3900.03,	3.747326e-12,	3900.1,	2.298746e-11,	3899.88,	2.000647e-10,	3900.18,	3.718497e-09,	3899.81,	3.721832e-08
,	,	,	,	3986.38,	1.031151e-08,	3986.61,	2.462567e-10,	3986.68,	3.825114e-12,	3986.75,	2.277736e-11,	3986.53,	2.044201e-10,	3986.83,	3.681015e-09,	3986.46,	3.592517e-08
,	,	,	,	4073.03,	1.031226e-08,	4073.25,	2.434927e-10,	4073.33,	3.703456e-12,	4073.4,	2.216467e-11,	4073.18,	2.001606e-10,	4073.48,	3.697701e-09,	4073.11,	3.602369e-08
,	,	,	,	4159.68,	2.619501e-09,	4159.9,	2.387828e-10,	4159.98,	3.769001e-12,	4160.05,	2.268174e-11,	4159.83,	1.960577e-10,	4160.13,	3.588631e-09,	4159.76,	3.686544e-08
,	,	,	,	4246.33,	2.610472e-09,	4246.56,	2.377089e-10,	4246.63,	3.583805e-12,	4246.7,	2.191185e-11,	4246.48,	1.895293e-10,	4246.78,	3.593381e-09,	4246.41,	3.608916e-08
,	,	,	,	4332.98,	2.592991e-09,	4333.2,	2.396591e-10,	4333.28,	3.362834e-12,	4333.35,	2.270529e-11,	4333.13,	1.887291e-10,	4333.43,	3.629344e-09,	4333.06,	3.572474e-08
,	,	,	,	4419.63,	2.594421e-09,	4419.85,	2.366845e-10,	4419.93,	3.51047e-12,	4420,	2.197202e-11,	4419.78,	1.904217e-10,	4420.08,	3.625088e-09,	4419.7,	3.566168e-08
,	,	,	,	4506.28,	2.601406e-09,	4506.5,	2.386927e-10,	4506.58,	3.515851e-12,	4506.65,	2.252616e-11,	4506.43,	1.921247e-10,	4506.73,	3.58396e-09,	4506.35,	3.573429e-08
,	,	,	,	4589.56,	2.584291e-09,	4589.78,	2.378499e-10,	4589.85,	3.948088e-12,	4589.93,	2.185301e-11,	4589.7,	1.926607e-10,	4590,	3.622767e-09,	4589.63,	3.571458e-08