File: Quantification/development/chip crosscheck/HERonPt_RnD1_2021bW1D3_noSEM_1-2.csv
ixdat version = 0.2.3
name = 2022-07-06 15_54_35 HER_chip crosscheck_newchip_SEM_off AND 2022-07-06 15_54_35 HER_chip crosscheck_newchip_SEM_off_01_01_CVA_DUSB0_C01.mpt AND 2022-07-06 15_54_35 HER_chip crosscheck_newchip_SEM_off_01_02_CP_DUSB0_C01.mpt
technique = EC-MS
tstamp = 1657115675.0
backend_name = BackendBase(none, address=none)
id = 156
timecol 'time/s' for: 'Ewe/V' and 'raw_current' and 'selector'
timecol 'C0M2 time [s]' for: 'M2'
timecol 'C1M4 time [s]' for: 'M4'
timecol 'C3M28 time [s]' for: 'M28'
timecol 'C6M44 time [s]' for: 'M44'
timecol 'C5M40 time [s]' for: 'M40'
timecol 'C4M32 time [s]' for: 'M32'
timecol 'C2M18 time [s]' for: 'M18'
aliases = {"M2": ["M2 [A]"], "M4": ["M4 [A]"], "M18": ["M18 [A]"], "M28": ["M28 [A]"], "M32": ["M32 [A]"], "M40": ["M40 [A]"], "M44": ["M44 [A]"], "t": ["time/s"], "raw_potential": ["Ewe/V"], "raw_current": ["<I>/mA", "I/mA"], "cycle": ["cycle number"]}
N_header_lines = 18

time/s,	Ewe/V,	raw_current,	selector,	C0M2 time [s],	M2,	C1M4 time [s],	M4,	C3M28 time [s],	M28,	C6M44 time [s],	M44,	C5M40 time [s],	M40,	C4M32 time [s],	M32,	C2M18 time [s],	M18
511.0,	0.915123,	0.000321593,	0,	0.510736,	3.025169e-12,	0.585719,	1.996643e-15,	0.734686,	4.651813e-14,	0.957638,	3.381737e-14,	0.883654,	4.463083e-15,	0.80867,	2.869252e-13,	0.659703,	1.169109e-12
575.416,	1.39741,	-9.30279e-05,	0,	281.346,	5.722483e-12,	281.42,	3.484121e-13,	281.569,	9.262766e-10,	281.793,	1.205227e-12,	281.718,	1.551136e-11,	281.644,	2.027043e-10,	281.495,	3.340534e-11
633.285,	0.239896,	-0.00390541,	0,	562.181,	7.105092e-12,	562.255,	5.433057e-10,	562.404,	3.588765e-12,	562.628,	6.466612e-13,	562.553,	1.065227e-13,	562.479,	1.217345e-11,	562.33,	4.351982e-11
690.183,	0.918544,	0.00349836,	1,	843.016,	7.693096e-12,	843.091,	5.470592e-10,	843.24,	2.729159e-12,	843.463,	4.806077e-13,	843.389,	8.040438e-14,	843.314,	4.254999e-12,	843.165,	3.988393e-11
747.71,	1.33146,	-0.000195452,	1,	1123.85,	7.833084e-12,	1123.92,	5.395016e-10,	1124.07,	2.516993e-12,	1124.3,	4.823128e-13,	1124.22,	8.424781e-14,	1124.15,	3.99135e-12,	1124.0,	3.809406e-11
805.579,	0.173883,	-0.00428709,	1,	1404.68,	8.065971e-12,	1404.76,	5.386488e-10,	1404.91,	2.364223e-12,	1405.13,	4.251067e-13,	1405.06,	8.069598e-14,	1404.98,	3.750987e-12,	1404.83,	3.69385e-11
862.477,	0.984509,	0.00456159,	2,	1685.52,	8.180294e-12,	1685.59,	5.362608e-10,	1685.74,	2.254534e-12,	1685.97,	4.338061e-13,	1685.89,	9.399614e-14,	1685.82,	3.599566e-12,	1685.67,	3.595026e-11
920.004,	1.26547,	-0.00032517,	2,	1966.36,	1.202473e-11,	1966.43,	5.325917e-10,	1966.58,	2.124149e-12,	1966.8,	4.620345e-13,	1966.73,	9.056986e-14,	1966.65,	3.476503e-12,	1966.5,	3.550651e-11
977.873,	0.107956,	-0.00742304,	2,	2247.19,	8.368092e-12,	2247.27,	5.322787e-10,	2247.41,	2.047166e-12,	2247.64,	4.97966e-13,	2247.56,	6.834354e-14,	2247.49,	3.434675e-12,	2247.34,	3.512745e-11
1034.77,	1.05044,	0.00470344,	3,	2528.02,	1.665708e-11,	2528.1,	5.312813e-10,	2528.25,	2.066485e-12,	2528.47,	5.281221e-13,	2528.4,	8.090659e-14,	2528.32,	3.379052e-12,	2528.17,	3.487331e-11
1092.3,	1.19949,	-0.00047129,	3,	2808.86,	8.527819e-12,	2808.93,	5.285207e-10,	2809.08,	2.018666e-12,	2809.31,	5.344604e-13,	2809.23,	6.352811e-14,	2809.16,	3.348633e-12,	2809.01,	3.449436e-11
1150.17,	0.0419552,	-0.0142185,	3,	3089.69,	2.530282e-11,	3089.77,	5.264891e-10,	3089.92,	2.00795e-12,	3090.14,	5.565652e-13,	3090.07,	7.370976e-14,	3089.99,	3.309178e-12,	3089.84,	3.452599e-11
1207.06,	1.11639,	0.00474018,	4,	3370.53,	8.646666e-12,	3370.6,	5.26823e-10,	3370.75,	2.013065e-12,	3370.97,	5.568527e-13,	3370.9,	7.393251e-14,	3370.83,	3.29056e-12,	3370.68,	3.425455e-11
1264.59,	1.13348,	-0.000664815,	4,	3651.36,	3.414192e-11,	3651.44,	5.25334e-10,	3651.59,	2.008655e-12,	3651.81,	5.761914e-13,	3651.74,	6.32689e-14,	3651.66,	3.274129e-12,	3651.51,	3.423896e-11
1321.82,	0.031651,	0.0205025,	4,	3932.2,	8.750826e-12,	3932.27,	5.244777e-10,	3932.42,	2.00386e-12,	3932.65,	5.741178e-13,	3932.57,	7.383125e-14,	3932.5,	3.274713e-12,	3932.35,	3.40184e-11
1409.54,	0.882416,	2.24575e-06,	5,	4213.03,	4.271831e-11,	4213.11,	5.237346e-10,	4213.26,	1.990422e-12,	4213.48,	5.805573e-13,	4213.41,	6.737557e-14,	4213.33,	3.259849e-12,	4213.18,	3.443169e-11
1602.54,	0.915589,	2.28542e-06,	5,	4493.87,	8.819953e-12,	4493.94,	5.236299e-10,	4494.09,	2.016804e-12,	4494.32,	5.982881e-13,	4494.24,	7.862642e-14,	4494.17,	3.229466e-12,	4494.02,	3.385149e-11
1745.5,	0.03989362,	-0.00249637,	6,	4774.7,	8.665324e-12,	4774.78,	5.245848e-10,	4774.93,	2.023413e-12,	4775.15,	6.722895e-13,	4775.08,	7.606682e-14,	4775,	3.305055e-12,	4774.85,	3.414167e-11
1938.5,	0.0382738,	-0.00249587,	6,	5055.54,	8.465865e-12,	5055.61,	5.109707e-10,	5055.76,	2.025029e-12,	5055.98,	6.827829e-13,	5055.91,	7.185078e-14,	5055.84,	7.671567e-12,	5055.69,	3.408026e-11
2130.08,	0.1661614,	2.52383e-06,	7,	5336.37,	8.699955e-12,	5336.45,	5.240628e-10,	5336.6,	2.034749e-12,	5336.82,	6.04845e-13,	5336.74,	6.541942e-14,	5336.67,	3.290973e-12,	5336.52,	3.404622e-11
2310.02,	0.0291583,	-0.0049968,	8,	5617.21,	8.724607e-12,	5617.28,	5.242187e-10,	5617.43,	2.01861e-12,	5617.65,	6.008234e-13,	5617.58,	7.844012e-14,	5617.51,	3.287098e-12,	5617.36,	3.398099e-11
2503.02,	0.0288107,	-0.00499638,	8,	5898.04,	1.228235e-11,	5898.12,	5.217102e-10,	5898.27,	2.000616e-12,	5898.49,	6.09138e-13,	5898.41,	6.426922e-14,	5898.34,	3.259886e-12,	5898.19,	3.39062e-11
2694.08,	0.135575,	2.55816e-06,	9,	6178.88,	8.888053e-12,	6178.95,	5.23243e-10,	6179.1,	1.982099e-12,	6179.32,	6.089599e-13,	6179.25,	8.029096e-14,	6179.17,	3.230224e-12,	6179.03,	3.377174e-11
2870.84,	0.0378956,	-0.00999607,	10,	6459.71,	1.660762e-11,	6459.79,	5.210771e-10,	6459.93,	1.982525e-12,	6460.16,	5.860895e-13,	6460.08,	8.26602e-14,	6460.01,	3.23904e-12,	6459.86,	3.376184e-11
3063.84,	0.0199397,	-0.00999614,	10,	6740.55,	9.564615e-12,	6740.62,	5.204571e-10,	6740.77,	1.997607e-12,	6740.99,	6.014309e-13,	6740.92,	8.753638e-14,	6740.85,	3.220945e-12,	6740.7,	3.363549e-11
3255.08,	0.112099,	2.6108e-06,	11,	7021.38,	8.858014e-12,	7021.46,	5.193496e-10,	7021.61,	1.992463e-12,	7021.83,	6.010178e-13,	7021.75,	8.46285e-14,	7021.68,	3.223286e-12,	7021.53,	3.365335e-11
3448.08,	0.209817,	2.21028e-06,	11,	7302.22,	2.560398e-11,	7302.29,	5.215282e-10,	7302.44,	2.048778e-12,	7302.66,	6.070321e-13,	7302.59,	8.105235e-14,	7302.51,	3.220001e-12,	7302.37,	3.391648e-11
3624.45,	0.0150114,	-0.0149966,	12,	7583.05,	8.894403e-12,	7583.125,	5.21387e-10,	7583.27,	2.618222e-12,	7583.5,	5.958217e-13,	7583.42,	8.620395e-14,	7583.35,	3.289499e-12,	7583.2,	3.358351e-11
3816.08,	0.0871213,	2.66306e-06,	13,	7863.88,	3.439208e-11,	7863.96,	5.213986e-10,	7864.11,	2.01396e-12,	7864.33,	6.023625e-13,	7864.26,	7.278633e-14,	7864.18,	3.228745e-12,	7864.03,	3.378188e-11
4009.08,	0.177707,	2.52726e-06,	13,	8144.72,	8.948758e-12,	8144.79,	5.212899e-10,	8144.94,	2.03357e-12,	8145.17,	5.841617e-13,	8145.09,	6.197286e-14,	8145.02,	3.217494e-12,	8144.87,	3.35973e-11
4185.64,	0.0116036,	-0.0199959,	14,	8425.55,	4.292613e-11,	8425.63,	5.204541e-10,	8425.78,	2.007071e-12,	8426,	5.950684e-13,	8425.93,	8.156264e-14,	8425.85,	3.220706e-12,	8425.7,	3.397238e-11
4377.08,	0.0387169,	2.71723e-06,	15,	8706.39,	9.010528e-12,	8706.46,	5.202997e-10,	8706.61,	2.033004e-12,	8706.84,	6.038932e-13,	8706.76,	7.376643e-14,	8706.69,	3.212619e-12,	8706.54,	3.358232e-11
4570.08,	0.151812,	2.37354e-06,	15,	8987.22,	8.950147e-12,	8987.3,	5.194369e-10,	8987.45,	2.036045e-12,	8987.67,	5.99823e-13,	8987.6,	6.969617e-14,	8987.52,	3.207641e-12,	8987.37,	3.342152e-11
4702.79,	1.42527,	0.00589446,	16,	9268.06,	8.956906e-12,	9268.13,	5.207204e-10,	9268.28,	2.052784e-12,	9268.51,	6.070846e-13,	9268.43,	8.194738e-14,	9268.36,	3.217105e-12,	9268.21,	3.350782e-11
4759.88,	0.833339,	-0.00591993,	16,	9548.89,	8.968862e-12,	9548.97,	5.204106e-10,	9549.12,	2.031967e-12,	9549.34,	5.99422e-13,	9549.27,	8.238476e-14,	9549.19,	3.2277e-12,	9549.04,	3.335899e-11
4817.38,	0.337161,	0.00270946,	16,	9829.73,	8.943732e-12,	9829.8,	5.207484e-10,	9829.95,	2.024219e-12,	9830.17,	5.831695e-13,	9830.1,	7.173735e-14,	9830.03,	3.198277e-12,	9829.88,	3.353282e-11
4874.8,	1.48556,	0.00620689,	17,	10110.6,	8.966157e-12,	10110.6,	5.210378e-10,	10110.8,	2.022879e-12,	10111,	5.687393e-13,	10110.9,	7.350718e-14,	10110.9,	3.242702e-12,	10110.7,	3.347616e-11
4931.88,	0.773367,	-0.0163858,	17,	10391.4,	8.956991e-12,	10391.5,	5.201119e-10,	10391.6,	2.011121e-12,	10391.8,	5.660704e-13,	10391.8,	7.735061e-14,	10391.7,	3.221079e-12,	10391.5,	3.336356e-11
4989.38,	0.397089,	0.000521478,	17,	10672.2,	8.974913e-12,	10672.3,	5.213776e-10,	10672.5,	2.023178e-12,	10672.7,	5.638227e-13,	10672.6,	7.338569e-14,	10672.5,	3.240733e-12,	10672.4,	3.336557e-11
5046.8,	1.54558,	0.00938702,	18,	10953.1,	8.957221e-12,	10953.1,	5.207559e-10,	10953.3,	2.014349e-12,	10953.5,	5.615709e-13,	10953.4,	7.884506e-14,	10953.4,	3.209743e-12,	10953.2,	3.302349e-11
5103.87,	0.713426,	-0.0242187,	18,	11233.9,	8.965533e-12,	11234,	5.207292e-10,	11234.1,	1.992236e-12,	11234.3,	5.43751e-13,	11234.3,	8.636183e-14,	11234.2,	3.237623e-12,	11234,	3.342514e-11
5161.37,	0.457059,	0.000302766,	18,	11514.7,	8.986274e-12,	11514.8,	5.21495e-10,	11515,	2.012117e-12,	11515.2,	5.508182e-13,	11515.1,	6.608357e-14,	11515,	3.218965e-12,	11514.9,	3.327652e-11
5218.79,	1.60554,	0.0211638,	19,	11795.6,	9.013051e-12,	11795.7,	5.238354e-10,	11795.8,	1.997829e-12,	11796,	5.298555e-13,	11795.9,	6.504677e-14,	11795.9,	3.243815e-12,	11795.7,	3.345417e-11
5275.87,	0.653429,	-0.00539285,	19,	12076.4,	9.033577e-12,	12076.5,	5.217052e-10,	12076.6,	1.964668e-12,	12076.8,	5.220147e-13,	12076.8,	6.656955e-14,	12076.7,	3.235407e-12,	12076.6,	3.327594e-11
5333.36,	0.516952,	0.000300391,	19,	12357.2,	9.000889e-12,	12357.3,	5.201544e-10,	12357.5,	1.986947e-12,	12357.7,	5.248051e-13,	12357.6,	6.307442e-14,	12357.5,	3.259987e-12,	12357.4,	3.345407e-11
5390.78,	1.665501,	0.0613567,	20,	12638.1,	9.023334e-12,	12638.2,	5.206491e-10,	12638.3,	2.003803e-12,	12638.5,	5.23906e-13,	12638.5,	8.155046e-14,	12638.4,	3.234512e-12,	12638.2,	3.338723e-11
5447.86,	0.593517,	-0.00197533,	20,	,	,	,	,	,	,	,	,	,	,	,	,	,
5505.36,	0.57698,	0.000359207,	20,	,	,	,	,	,	,	,	,	,	,	,	,	,
5656.92,	0.901232,	2.1687e-06,	21,	,	,	,	,	,	,	,	,	,	,	,	,	,
5836.11,	0.662874,	-0.00249598,	22,	,	,	,	,	,	,	,	,	,	,	,	,	,
5996.89,	0.0377351,	-0.00249652,	22,	,	,	,	,	,	,	,	,	,	,	,	,	,
6188.23,	0.105345,	2.47233e-06,	23,	,	,	,	,	,	,	,	,	,	,	,	,	,
6381.23,	0.208377,	2.46051e-06,	23,	,	,	,	,	,	,	,	,	,	,	,	,	,
6563.31,	0.0282452,	-0.0049968,	24,	,	,	,	,	,	,	,	,	,	,	,	,	,
6755.23,	0.0804662,	2.34798e-06,	25,	,	,	,	,	,	,	,	,	,	,	,	,	,
6948.23,	0.1748566,	2.58982e-06,	25,	,	,	,	,	,	,	,	,	,	,	,	,	,
7126.69,	0.0193819,	-0.00999645,	26,	,	,	,	,	,	,	,	,	,	,	,	,	,
7319.69,	0.0192215,	-0.00999618,	26,	,	,	,	,	,	,	,	,	,	,	,	,	,
7511.23,	0.150593,	2.4567e-06,	27,	,	,	,	,	,	,	,	,	,	,	,	,	,
7688.74,	0.0144001,	-0.0149963,	28,	,	,	,	,	,	,	,	,	,	,	,	,	,
7881.74,	0.0143314,	-0.0149956,	28,	,	,	,	,	,	,	,	,	,	,	,	,	,
8073.23,	0.130769,	2.28542e-06,	29,	,	,	,	,	,	,	,	,	,	,	,	,	,
8250.07,	0.0111031,	-0.0199961,	30,	,	,	,	,	,	,	,	,	,	,	,	,	,
8443.07,	0.0109809,	-0.0199962,	30,	,	,	,	,	,	,	,	,	,	,	,	,	,
8634.23,	0.107855,	2.4258e-06,	31,	,	,	,	,	,	,	,	,	,	,	,	,	,
8822.23,	0.1906845,	2.50476e-06,	31,	,	,	,	,	,	,	,	,	,	,	,	,	,