File: Quantification/development/chip crosscheck/HERonPt_RnD1_2019W4C5_noSEM_1-2.csv
ixdat version = 0.2.3
name = 2022-07-06 09_33_53 HER_chip crosscheck_SEM_off AND 2022-07-06 09_33_53 HER_chip crosscheck_SEM_off_01_01_CVA_DUSB0_C01.mpt AND 2022-07-06 09_33_53 HER_chip crosscheck_SEM_off_01_02_CP_DUSB0_C01.mpt
technique = EC-MS
tstamp = 1657092833.0
backend_name = BackendBase(none, address=none)
id = 95
timecol 'time/s' for: 'Ewe/V' and 'raw_current' and 'selector'
timecol 'C0M2 time [s]' for: 'M2'
timecol 'C3M28 time [s]' for: 'M28'
timecol 'C6M44 time [s]' for: 'M44'
timecol 'C1M4 time [s]' for: 'M4'
timecol 'C5M40 time [s]' for: 'M40'
timecol 'C4M32 time [s]' for: 'M32'
timecol 'C2M18 time [s]' for: 'M18'
aliases = {"M2": ["M2 [A]"], "M4": ["M4 [A]"], "M18": ["M18 [A]"], "M28": ["M28 [A]"], "M32": ["M32 [A]"], "M40": ["M40 [A]"], "M44": ["M44 [A]"], "t": ["time/s"], "raw_potential": ["Ewe/V"], "raw_current": ["<I>/mA", "I/mA"], "cycle": ["cycle number"]}
N_header_lines = 18

time/s,	Ewe/V,	raw_current,	selector,	C0M2 time [s],	M2,	C3M28 time [s],	M28,	C6M44 time [s],	M44,	C1M4 time [s],	M4,	C5M40 time [s],	M40,	C4M32 time [s],	M32,	C2M18 time [s],	M18
790.0,	0.921445,	-9.39864e-05,	0,	0.498452,	2.258405e-12,	0.722472,	1.552359e-14,	0.945492,	1.43896e-14,	0.573459,	6.054729e-16,	0.871485,	5.050332e-16,	0.796479,	1.273032e-13,	0.647465,	6.922924e-13
849.604,	1.48735,	-7.79174e-05,	0,	258.051,	2.309913e-12,	258.275,	5.585332e-14,	258.498,	3.2331e-14,	258.126,	1.438147e-14,	258.424,	1.532107e-14,	258.349,	1.667905e-13,	258.2,	7.474936e-13
902.675,	0.4258545,	-0.00134257,	0,	515.605,	5.191931e-12,	515.828,	9.385229e-10,	516.052,	1.269715e-12,	515.679,	1.031409e-13,	515.977,	1.574178e-11,	515.903,	2.020396e-10,	515.754,	2.857235e-11
955.105,	0.643266,	0.000438585,	0,	773.158,	6.546027e-12,	773.382,	5.060671e-12,	773.605,	1.825916e-12,	773.233,	5.742706e-10,	773.531,	1.513276e-13,	773.456,	5.152492e-12,	773.307,	4.160137e-11
1007.83,	1.69788,	0.0872346,	1,	1030.71,	6.962617e-12,	1030.93,	4.11666e-12,	1031.16,	1.548402e-12,	1030.79,	5.626787e-10,	1031.08,	1.431224e-13,	1031.01,	5.587291e-12,	1030.86,	3.952857e-11
1060.58,	0.647807,	-0.00665176,	1,	1288.26,	7.324232e-12,	1288.49,	3.718287e-12,	1288.71,	1.196459e-12,	1288.34,	5.58433e-10,	1288.64,	1.173807e-13,	1288.56,	4.125667e-12,	1288.41,	3.789863e-11
1113.29,	0.427038,	5.42448e-05,	1,	1545.82,	7.318922e-12,	1546.04,	3.71476e-12,	1546.26,	1.150439e-12,	1545.89,	5.530491e-10,	1546.19,	1.262785e-13,	1546.11,	4.856321e-12,	1545.96,	3.702045e-11
1166.06,	1.48249,	0.0072837,	2,	1803.37,	7.556402e-12,	1803.59,	3.738156e-12,	1803.82,	1.09316e-12,	1803.44,	5.494639e-10,	1803.74,	1.24614e-13,	1803.67,	4.028766e-12,	1803.52,	3.580929e-11
1218.78,	0.86364,	-0.00421347,	2,	2060.92,	1.078416e-11,	2061.15,	3.72392e-12,	2061.37,	1.106723e-12,	2061,	5.459199e-10,	2061.3,	1.270966e-13,	2061.22,	3.955483e-12,	2061.07,	3.520407e-11
1273.52,	0.251711,	0.0032539,	2,	2318.48,	7.753985e-12,	2318.7,	3.802252e-12,	2318.92,	1.131967e-12,	2318.55,	5.42224e-10,	2318.85,	1.443698e-13,	2318.77,	3.937116e-12,	2318.625,	3.507831e-11
1326.06,	1.302626,	0.00586452,	3,	2576.03,	1.375255e-11,	2576.25,	3.792078e-12,	2576.47,	1.147972e-12,	2576.1,	5.41944e-10,	2576.4,	1.415186e-13,	2576.33,	3.900666e-12,	2576.18,	3.484663e-11
1378.78,	1.04357,	-0.00111486,	3,	2833.58,	1.564527e-11,	2833.81,	3.678395e-12,	2834.03,	1.13178e-12,	2833.66,	5.40525e-10,	2833.95,	1.352573e-13,	2833.88,	3.846372e-12,	2833.73,	3.440246e-11
1432.11,	0.0436497,	0.0152333,	3,	3091.13,	7.917097e-12,	3091.36,	3.544587e-12,	3091.58,	1.162435e-12,	3091.21,	5.412417e-10,	3091.51,	1.348564e-13,	3091.43,	3.768584e-12,	3091.28,	3.422722e-11
1487.56,	1.15269,	0.00477914,	4,	3348.69,	2.450538e-11,	3348.91,	3.394037e-12,	3349.13,	1.147997e-12,	3348.76,	5.402297e-10,	3349.06,	1.335887e-13,	3348.99,	3.705594e-12,	3348.84,	3.428121e-11
1540.28,	1.19345,	-0.000536032,	4,	3606.24,	8.096252e-12,	3606.46,	3.225433e-12,	3606.69,	1.137309e-12,	3606.32,	5.400839e-10,	3606.61,	1.196932e-13,	3606.54,	3.610926e-12,	3606.39,	3.408113e-11
1593.35,	0.131895,	-0.00688934,	4,	3863.79,	3.349672e-11,	3864.02,	3.169307e-12,	3864.24,	1.159981e-12,	3863.87,	5.382301e-10,	3864.17,	1.234273e-13,	3864.09,	3.563971e-12,	3863.94,	3.395151e-11
1659.66,	0.890359,	2.027559e-06,	5,	4121.35,	8.305883e-12,	4121.57,	3.103661e-12,	4121.79,	1.153302e-12,	4121.42,	5.368975e-10,	4121.72,	1.125531e-13,	4121.64,	3.514929e-12,	4121.49,	3.36362e-11
1836.66,	0.934606,	2.099654e-06,	5,	4378.9,	4.104953e-11,	4379.12,	3.005834e-12,	4379.35,	1.181932e-12,	4378.97,	5.385243e-10,	4379.27,	1.074218e-13,	4379.2,	3.468456e-12,	4379.05,	3.421188e-11
1971.72,	0.277327,	-0.00249652,	6,	4636.45,	4.246194e-11,	4636.68,	2.94054e-12,	4636.9,	1.176853e-12,	4636.53,	5.360309e-10,	4636.83,	1.090499e-13,	4636.75,	3.440098e-12,	4636.6,	3.409147e-11
2147.85,	0.0383884,	-0.00249679,	6,	4894.01,	8.297225e-12,	4894.23,	2.89307e-12,	4894.45,	1.173576e-12,	4894.08,	5.372486e-10,	4894.38,	9.53569e-14,	4894.31,	3.381661e-12,	4894.16,	3.341557e-11
2323.08,	0.171854,	2.29229e-06,	7,	5151.56,	8.263424e-12,	5151.78,	2.932785e-12,	5152.01,	1.245674e-12,	5151.63,	5.379402e-10,	5151.93,	1.111437e-13,	5151.86,	3.478609e-12,	5151.71,	3.352494e-11
2500,	0.72458,	2.09813e-06,	7,	5409.11,	8.177885e-12,	5409.34,	2.838821e-12,	5409.56,	1.219491e-12,	5409.19,	5.387357e-10,	5409.48,	9.178076e-14,	5409.41,	3.480549e-12,	5409.26,	3.364359e-11
2616.55,	0.0282223,	-0.00499672,	8,	5666.67,	8.178382e-12,	5666.89,	2.72336e-12,	5667.11,	1.20502e-12,	5666.74,	5.350864e-10,	5667.04,	9.43039e-14,	5666.96,	4.642e-12,	5666.82,	3.360597e-11
2793.55,	0.0278823,	-0.00499657,	8,	5924.22,	8.301501e-12,	5924.44,	2.72383e-12,	5924.67,	1.153942e-12,	5924.29,	5.375961e-10,	5924.59,	9.244091e-14,	5924.52,	3.372767e-12,	5924.37,	3.349088e-11
2969.08,	0.209897,	2.16336e-06,	9,	6181.77,	1.136468e-11,	6181.99,	2.690369e-12,	6182.22,	1.165339e-12,	6181.85,	5.383314e-10,	6182.14,	9.685539e-14,	6182.07,	3.327675e-12,	6181.92,	3.323308e-11
3145.08,	0.156672,	-0.000257059,	9,	6439.32,	8.459452e-12,	6439.55,	2.6618e-12,	6439.77,	1.163014e-12,	6439.4,	5.375055e-10,	6439.7,	8.539392e-14,	6439.62,	3.311969e-12,	6439.47,	3.301388e-11
3262.91,	0.0187936,	-0.00999679,	10,	6696.88,	8.437058e-12,	6697.1,	2.663675e-12,	6697.32,	1.176796e-12,	6696.95,	5.364027e-10,	6697.25,	9.075206e-14,	6697.17,	3.315658e-12,	6697.03,	3.328238e-11
3439.91,	0.0187974,	-0.00999725,	10,	6954.43,	1.645275e-11,	6954.65,	2.678332e-12,	6954.88,	1.173827e-12,	6954.51,	5.370103e-10,	6954.8,	1.039024e-13,	6954.73,	3.309773e-12,	6954.58,	3.347194e-11
3615.08,	0.230306,	2.15878e-06,	11,	7211.98,	8.461497e-12,	7212.21,	2.645361e-12,	7212.43,	1.154173e-12,	7212.06,	5.369079e-10,	7212.36,	1.007555e-13,	7212.28,	3.278601e-12,	7212.13,	3.328069e-11
3748.8,	0.0814748,	-0.0149962,	12,	7469.54,	2.506384e-11,	7469.76,	2.675781e-12,	7469.98,	1.161135e-12,	7469.61,	5.350356e-10,	7469.91,	8.858532e-14,	7469.84,	3.324151e-12,	7469.69,	3.337215e-11
3922.63,	0.01388439,	-0.0149959,	12,	7727.09,	8.566658e-12,	7727.31,	2.638176e-12,	7727.54,	1.159235e-12,	7727.16,	5.36407e-10,	7727.46,	1.0355e-13,	7727.39,	3.300219e-12,	7727.24,	3.3224e-11
4098.08,	0.0920038,	2.18968e-06,	13,	7984.64,	3.376649e-11,	7984.87,	2.583158e-12,	7985.09,	1.135515e-12,	7984.72,	5.360697e-10,	7985.02,	1.059598e-13,	7984.94,	3.27982e-12,	7984.79,	3.363152e-11
4275.08,	0.270829,	2.23164e-06,	13,	8242.19,	9.034362e-12,	8242.42,	2.526636e-12,	8242.64,	1.115702e-12,	8242.27,	5.352261e-10,	8242.57,	8.511044e-14,	8242.49,	3.242301e-12,	8242.34,	3.325408e-11
4421.57,	0.0104842,	-0.019996,	14,	8499.75,	8.579784e-12,	8499.97,	2.567468e-12,	8500.19,	1.13745e-12,	8499.82,	5.346816e-10,	8500.12,	8.340136e-14,	8500.05,	3.234646e-12,	8499.9,	3.297622e-11
4598.57,	0.0104499,	-0.0199963,	14,	8757.3,	4.279423e-11,	8757.53,	2.529515e-12,	8757.75,	1.120752e-12,	8757.38,	5.345925e-10,	8757.67,	7.721701e-14,	8757.6,	3.266726e-12,	8757.45,	3.36031e-11
4774.08,	0.141172,	2.09393e-06,	15,	9014.85,	8.666583e-12,	9015.08,	2.58558e-12,	9015.3,	1.127358e-12,	9014.93,	5.343032e-10,	9015.23,	9.997388e-14,	9015.15,	3.26285e-12,	9015,	3.313145e-11
4951.13,	0.918931,	0.00086581,	16,	9272.41,	8.549543e-12,	9272.63,	2.542411e-12,	9272.86,	1.177517e-12,	9272.48,	5.337096e-10,	9272.78,	1.039307e-13,	9272.71,	3.253993e-12,	9272.56,	3.27174e-11
5006.77,	1.46901,	0.000157085,	16,	9529.96,	8.595701e-12,	9530.18,	2.597187e-12,	9530.41,	1.127722e-12,	9530.04,	5.333176e-10,	9530.33,	8.820463e-14,	9530.26,	3.256962e-12,	9530.11,	3.295763e-11
5059.84,	0.4075799,	-0.00128937,	16,	9787.51,	8.599034e-12,	9787.74,	2.535558e-12,	9787.96,	1.125483e-12,	9787.59,	5.361722e-10,	9787.89,	9.114896e-14,	9787.81,	3.291885e-12,	9787.66,	3.329968e-11
5116.74,	0.75091,	0.000945391,	16,	10045.1,	8.596916e-12,	10045.3,	2.588536e-12,	10045.5,	1.127803e-12,	10045.1,	5.345368e-10,	10045.4,	8.904703e-14,	10045.4,	3.302386e-12,	10045.2,	3.328238e-11
5168.57,	1.613,	0.00551577,	17,	10302.6,	8.612942e-12,	10302.8,	2.468806e-12,	10303.1,	1.063834e-12,	10302.7,	5.340458e-10,	10303,	9.570925e-14,	10302.9,	3.272421e-12,	10302.8,	3.286772e-11
5221.64,	0.551513,	-0.00189931,	17,	10560.2,	6.599054e-12,	10560.4,	7.856131e-10,	10560.6,	1.701844e-12,	10560.25,	4.286331e-11,	10560.5,	1.300634e-11,	10560.5,	1.534328e-10,	10560.3,	3.642329e-11
5278.99,	0.615996,	0.000360765,	17,	10817.7,	4.999885e-12,	10818,	9.024718e-10,	10818.2,	1.330436e-12,	10817.8,	9.242067e-14,	10818.1,	1.551342e-11,	10818,	2.012279e-10,	10817.9,	1.823417e-11
5331.49,	1.6661,	0.0630634,	18,	,	,	,	,	,	,	,	,	,	,	,	,	,
5383.74,	0.689434,	-0.0151915,	18,	,	,	,	,	,	,	,	,	,	,	,	,	,
5441.24,	0.480983,	0.000112395,	18,	,	,	,	,	,	,	,	,	,	,	,	,	,
5493.89,	1.53411,	0.00848417,	19,	,	,	,	,	,	,	,	,	,	,	,	,	,
5546.14,	0.821335,	-0.00753861,	19,	,	,	,	,	,	,	,	,	,	,	,	,	,
5603.55,	0.3473044,	0.00170402,	19,	,	,	,	,	,	,	,	,	,	,	,	,	,
5656.29,	1.40223,	0.00520657,	20,	,	,	,	,	,	,	,	,	,	,	,	,	,
5708.54,	0.953328,	-0.00212499,	20,	,	,	,	,	,	,	,	,	,	,	,	,	,
5766.46,	0.225611,	0.00367676,	20,	,	,	,	,	,	,	,	,	,	,	,	,	,
5859.82,	0.89688,	2.00315e-06,	21,	,	,	,	,	,	,	,	,	,	,	,	,	,
6036.82,	0.928291,	2.14772e-06,	21,	,	,	,	,	,	,	,	,	,	,	,	,	,
6172.6,	0.0414103,	-0.00249656,	22,	,	,	,	,	,	,	,	,	,	,	,	,	,
6349.6,	0.0375403,	-0.00249671,	22,	,	,	,	,	,	,	,	,	,	,	,	,	,
6525.22,	0.1837734,	2.08478e-06,	23,	,	,	,	,	,	,	,	,	,	,	,	,	,
6701.22,	0.521275,	-0.000257059,	24,	,	,	,	,	,	,	,	,	,	,	,	,	,
6846.13,	0.0275843,	-0.00499638,	24,	,	,	,	,	,	,	,	,	,	,	,	,	,
7021.22,	0.0663766,	2.29076e-06,	25,	,	,	,	,	,	,	,	,	,	,	,	,	,
7198.22,	0.242069,	2.23164e-06,	25,	,	,	,	,	,	,	,	,	,	,	,	,	,
7346.84,	0.0187095,	-0.009996945,	26,	,	,	,	,	,	,	,	,	,	,	,	,	,
7523.84,	0.0184574,	-0.00999679,	26,	,	,	,	,	,	,	,	,	,	,	,	,	,
7699.22,	0.128672,	2.25872e-06,	27,	,	,	,	,	,	,	,	,	,	,	,	,	,
7876.22,	0.306805,	1.93334e-06,	27,	,	,	,	,	,	,	,	,	,	,	,	,	,
8027.06,	0.0134183,	-0.0149962,	28,	,	,	,	,	,	,	,	,	,	,	,	,	,
8202.22,	0.0169292,	2.364e-06,	29,	,	,	,	,	,	,	,	,	,	,	,	,	,
8379.22,	0.180316,	2.24194e-06,	29,	,	,	,	,	,	,	,	,	,	,	,	,	,
8530.32,	0.01036963,	-0.0199962,	30,	,	,	,	,	,	,	,	,	,	,	,	,	,
8707.32,	0.00988444,	-0.0199962,	30,	,	,	,	,	,	,	,	,	,	,	,	,	,
8883.22,	0.0999196,	2.186626e-06,	31,	,	,	,	,	,	,	,	,	,	,	,	,	,
9060.22,	0.260506,	2.1481e-06,	31,	,	,	,	,	,	,	,	,	,	,	,	,	,
9101.22,	0.3081539,	1.94898e-06,	31,	,	,	,	,	,	,	,	,	,	,	,	,	,