File: Quantification/development/chip crosscheck/OERonPt_RnD1_2021bW1D3_noSEM_1-2.csv
ixdat version = 0.2.3
name = 2022-07-06 19_26_18 OER_chip crosscheck_newchip_SEM_off AND 2022-07-06 19_26_18 OER_chip crosscheck_newchip_SEM_off_01_01_CVA_DUSB0_C01.mpt AND 2022-07-06 19_26_18 OER_chip crosscheck_newchip_SEM_off_01_02_CP_DUSB0_C01.mpt
technique = EC-MS
tstamp = 1657128378.0
backend_name = BackendBase(none, address=none)
id = 159
timecol 'time/s' for: 'Ewe/V' and 'raw_current' and 'selector'
timecol 'C0M2 time [s]' for: 'M2'
timecol 'C6M44 time [s]' for: 'M44'
timecol 'C3M28 time [s]' for: 'M28'
timecol 'C1M4 time [s]' for: 'M4'
timecol 'C5M40 time [s]' for: 'M40'
timecol 'C4M32 time [s]' for: 'M32'
timecol 'C2M18 time [s]' for: 'M18'
aliases = {"M2": ["M2 [A]"], "M4": ["M4 [A]"], "M18": ["M18 [A]"], "M28": ["M28 [A]"], "M32": ["M32 [A]"], "M40": ["M40 [A]"], "M44": ["M44 [A]"], "t": ["time/s"], "raw_potential": ["Ewe/V"], "raw_current": ["<I>/mA", "I/mA"], "cycle": ["cycle number"]}
N_header_lines = 18

time/s,	Ewe/V,	raw_current,	selector,	C0M2 time [s],	M2,	C6M44 time [s],	M44,	C3M28 time [s],	M28,	C1M4 time [s],	M4,	C5M40 time [s],	M40,	C4M32 time [s],	M32,	C2M18 time [s],	M18
32.0,	0.938832,	-0.000128876,	0,	0.519806,	9.040636e-12,	0.966725,	5.32006e-13,	0.742765,	2.017622e-12,	0.593792,	5.223712e-10,	0.891739,	7.675531e-14,	0.817752,	3.232973e-12,	0.668779,	3.312517e-11
85.0522,	1.60107,	0.00382574,	0,	227.516,	8.949434e-12,	227.963,	6.03549e-13,	227.739,	1.990313e-12,	227.59,	5.212327e-10,	227.888,	6.081864e-14,	227.814,	3.252822e-12,	227.665,	3.35909e-11
131.827,	0.665467,	-0.00834047,	0,	454.511,	8.78164e-12,	454.958,	5.648839e-13,	454.734,	2.023575e-12,	454.585,	5.225576e-10,	454.883,	6.867966e-14,	454.809,	3.621926e-12,	454.66,	3.350546e-11
177.946,	0.27753,	0.00358696,	0,	681.507,	9.058703e-12,	681.954,	5.341161e-13,	681.731,	1.992273e-12,	681.582,	5.236684e-10,	681.88,	7.118661e-14,	681.805,	3.290779e-12,	681.656,	3.329987e-11
224.376,	1.20614,	0.00497768,	1,	908.503,	8.884323e-12,	908.949,	5.288632e-13,	908.727,	1.988737e-12,	908.578,	5.228425e-10,	908.875,	8.48553e-14,	908.8,	3.26398e-12,	908.651,	3.346545e-11
270.539,	1.2712,	-0.000352024,	1,	1135.5,	8.92479e-12,	1135.95,	5.191919e-13,	1135.72,	3.001428e-12,	1135.57,	5.201894e-10,	1135.87,	8.704228e-14,	1135.8,	3.436412e-12,	1135.65,	3.332781e-11
317.314,	0.335621,	-0.00212823,	1,	1362.49,	8.907047e-12,	1362.94,	5.246958e-13,	1362.72,	2.00652e-12,	1362.57,	5.22483e-10,	1362.87,	7.547147e-14,	1362.79,	3.810643e-12,	1362.64,	3.317778e-11
363.433,	0.607308,	0.000424652,	1,	1589.49,	8.932966e-12,	1589.94,	5.186856e-13,	1589.71,	1.973651e-12,	1589.57,	5.235831e-10,	1589.86,	5.805653e-14,	1589.79,	3.277989e-12,	1589.64,	3.299684e-11
409.863,	1.536,	0.00850407,	2,	1816.49,	8.890944e-12,	1816.93,	5.117682e-13,	1816.71,	1.975724e-12,	1816.56,	5.212755e-10,	1816.86,	6.67235e-14,	1816.78,	4.293645e-12,	1816.63,	3.302288e-11
456.026,	0.94137,	-0.00217252,	2,	2043.48,	8.697975e-12,	2043.93,	5.109947e-13,	2043.71,	2.00309e-12,	2043.56,	5.248912e-10,	2043.86,	8.069188e-14,	2043.78,	4.540795e-12,	2043.63,	3.346029e-11
502.572,	0.01038109,	-0.158054,	2,	2270.48,	8.922158e-12,	2270.93,	5.004242e-13,	2270.7,	1.968754e-12,	2270.55,	5.250458e-10,	2270.85,	6.911703e-14,	2270.78,	3.303824e-12,	2270.63,	3.310423e-11
548.89,	0.936572,	0.00463533,	2,	2497.47,	8.561786e-12,	2497.92,	5.140444e-13,	2497.7,	2.001199e-12,	2497.55,	5.234657e-10,	2497.85,	9.193869e-14,	2497.77,	5.796683e-12,	2497.62,	3.348875e-11
594.738,	1.54712,	0.000769956,	3,	2724.47,	8.661314e-12,	2724.92,	4.990715e-13,	2724.69,	2.000952e-12,	2724.55,	5.295749e-10,	2724.84,	7.204112e-14,	2724.77,	3.541615e-12,	2724.62,	3.36372e-11
641.513,	0.61149,	-0.0025412,	3,	2951.47,	8.869188e-12,	2951.91,	4.850383e-13,	2951.69,	1.989981e-12,	2951.54,	5.255227e-10,	2951.84,	8.473783e-14,	2951.76,	3.331287e-12,	2951.62,	3.313009e-11
687.632,	0.331505,	0.00303439,	3,	3178.46,	8.205541e-12,	3178.91,	5.12805e-13,	3178.69,	1.980001e-12,	3178.54,	5.245293e-10,	3178.84,	8.195143e-14,	3178.76,	7.338504e-12,	3178.61,	3.397361e-11
734.062,	1.26008,	0.00463774,	4,	3405.46,	8.66061e-12,	3405.91,	5.041502e-13,	3405.68,	1.971946e-12,	3405.53,	5.278633e-10,	3405.83,	7.177382e-14,	3405.76,	3.455779e-12,	3405.61,	3.341315e-11
780.225,	1.21721,	-0.000462279,	4,	3632.45,	8.283102e-12,	3632.9,	5.144534e-13,	3632.68,	2.013806e-12,	3632.53,	5.202018e-10,	3632.83,	6.182706e-14,	3632.75,	8.248418e-12,	3632.6,	3.378026e-11
827,	0.281581,	-0.00393508,	4,	3859.45,	7.925318e-12,	3859.9,	5.111081e-13,	3859.67,	1.97278e-12,	3859.53,	5.24925e-10,	3859.82,	7.348291e-14,	3859.75,	8.903389e-12,	3859.6,	3.42931e-11
873.119,	0.66124,	0.000500825,	4,	4086.45,	8.620636e-12,	4086.89,	4.983425e-13,	4086.67,	1.934483e-12,	4086.52,	5.302271e-10,	4086.82,	6.962731e-14,	4086.74,	3.469946e-12,	4086.6,	3.348145e-11
998.869,	0.89217,	2.31289e-06,	5,	4313.44,	8.749163e-12,	4313.89,	4.920529e-13,	4313.67,	1.964303e-12,	4313.52,	5.290491e-10,	4313.82,	7.966724e-14,	4313.74,	3.369535e-12,	4313.59,	3.307752e-11
1154.87,	0.916742,	2.54329e-06,	5,	4540.44,	8.819016e-12,	4540.88,	5.09322e-13,	4540.66,	1.951603e-12,	4540.51,	5.278763e-10,	4540.81,	5.831571e-14,	4540.74,	3.329651e-12,	4540.59,	3.275385e-11
1302.46,	1.57176,	0.00250347,	6,	4767.43,	8.613148e-12,	4767.88,	4.847629e-13,	4767.66,	1.923059e-12,	4767.51,	5.26584e-10,	4767.81,	8.083362e-14,	4767.73,	4.398928e-12,	4767.58,	3.317657e-11
1458.46,	1.6016,	0.00250397,	6,	4994.43,	1.044916e-11,	4994.875,	4.880069e-13,	4994.65,	1.923306e-12,	4994.5,	5.282477e-10,	4994.8,	8.372126e-14,	4994.73,	3.304447e-12,	4994.58,	3.298304e-11
1607.43,	1.36967,	2.40749e-06,	7,	5221.43,	8.89241e-12,	5221.87,	4.796033e-13,	5221.65,	1.903999e-12,	5221.5,	5.259566e-10,	5221.8,	7.421595e-14,	5221.72,	3.286162e-12,	5221.58,	3.268273e-11
1763.43,	1.31472,	2.36896e-06,	7,	5448.42,	8.890767e-12,	5448.87,	4.840826e-13,	5448.64,	1.923868e-12,	5448.5,	5.262786e-10,	5448.79,	7.901924e-14,	5448.72,	3.758123e-12,	5448.57,	3.254409e-11
1890.46,	1.64185,	0.00500368,	8,	5675.42,	8.859176e-12,	5675.87,	4.747676e-13,	5675.64,	1.871462e-12,	5675.49,	5.274192e-10,	5675.79,	6.639948e-14,	5675.72,	3.331967e-12,	5675.57,	3.250343e-11
2046.46,	1.65413,	0.00500387,	8,	5902.41,	8.945612e-12,	5902.86,	4.722161e-13,	5902.64,	1.890942e-12,	5902.49,	5.262323e-10,	5902.79,	7.249876e-14,	5902.71,	3.266673e-12,	5902.56,	3.227494e-11
2193.25,	1.42791,	2.3064e-06,	9,	6129.41,	8.709493e-12,	6129.86,	4.926402e-13,	6129.63,	1.877962e-12,	6129.48,	5.272823e-10,	6129.78,	7.905568e-14,	6129.71,	4.488031e-12,	6129.56,	3.300441e-11
2349.25,	1.38373,	2.32509e-06,	9,	6356.4,	8.866499e-12,	6356.85,	4.705231e-13,	6356.63,	1.88643e-12,	6356.48,	5.286497e-10,	6356.78,	7.767463e-14,	6356.7,	3.301641e-12,	6356.55,	3.245743e-11
2476.98,	1.68703,	0.010004,	10,	6583.4,	8.658406e-12,	6583.85,	4.679271e-13,	6583.62,	1.945832e-12,	6583.47,	5.238539e-10,	6583.77,	6.101703e-14,	6583.7,	5.590267e-12,	6583.55,	3.247282e-11
2632.98,	1.69809,	0.0100041,	10,	6810.4,	8.412284e-12,	6810.84,	4.732448e-13,	6810.62,	1.973165e-12,	6810.47,	5.297397e-10,	6810.77,	5.865588e-14,	6810.69,	5.946637e-12,	6810.55,	3.296492e-11
2776.9,	1.45495,	2.29954e-06,	11,	7037.39,	8.803764e-12,	7037.84,	4.680527e-13,	7037.62,	1.878565e-12,	7037.47,	5.307877e-10,	7037.77,	5.932818e-14,	7037.69,	3.331117e-12,	7037.54,	3.240401e-11
2932.9,	1.41383,	2.17938e-06,	11,	7264.39,	8.27814e-12,	7264.84,	4.586243e-13,	7264.61,	1.938359e-12,	7264.46,	5.260578e-10,	7264.76,	7.423212e-14,	7264.69,	7.188987e-12,	7264.54,	3.317214e-11
3059.61,	1.71732,	0.0150046,	12,	7491.38,	8.517803e-12,	7491.83,	4.79344e-13,	7491.61,	1.900467e-12,	7491.46,	5.354943e-10,	7491.76,	7.87195e-14,	7491.68,	3.638413e-12,	7491.53,	3.316152e-11
3215.61,	1.727627,	0.0150045,	12,	7718.38,	8.791914e-12,	7718.83,	4.411041e-13,	7718.6,	1.883547e-12,	7718.45,	5.320493e-10,	7718.75,	7.035224e-14,	7718.68,	3.34666e-12,	7718.53,	3.245137e-11
3358.26,	1.475657,	2.26864e-06,	13,	7945.38,	7.993359e-12,	7945.82,	4.789998e-13,	7945.6,	1.926157e-12,	7945.45,	5.301312e-10,	7945.75,	6.74565e-14,	7945.67,	8.798982e-12,	7945.53,	3.35897e-11
3514.26,	1.43273,	2.16488e-06,	13,	8172.37,	8.491134e-12,	8172.82,	4.794695e-13,	8172.6,	1.969443e-12,	8172.45,	5.34693e-10,	8172.74,	6.711629e-14,	8172.67,	3.544579e-12,	8172.52,	3.309012e-11
3640.69,	1.740028,	0.0200044,	14,	8399.37,	8.715082e-12,	8399.81,	4.442347e-13,	8399.59,	1.873361e-12,	8399.44,	5.322369e-10,	8399.74,	5.786613e-14,	8399.66,	3.330854e-12,	8399.52,	3.238672e-11
3796.69,	1.75014,	0.0200048,	14,	8626.36,	8.825594e-12,	8626.81,	4.417845e-13,	8626.59,	1.823996e-12,	8626.44,	5.30801e-10,	8626.74,	7.92622e-14,	8626.66,	3.281537e-12,	8626.51,	3.207784e-11
3938.08,	1.49607,	2.07028e-06,	15,	,	,	,	,	,	,	,	,	,	,	,	,	,
4094.08,	1.44645,	2.29992e-06,	15,	,	,	,	,	,	,	,	,	,	,	,	,	,
4211.98,	1.21324,	0.00078163,	16,	,	,	,	,	,	,	,	,	,	,	,	,	,
4258.38,	1.25974,	-0.000295573,	16,	,	,	,	,	,	,	,	,	,	,	,	,	,
4305.16,	0.324185,	-0.0037001,	16,	,	,	,	,	,	,	,	,	,	,	,	,	,
4351.29,	0.619584,	0.000329716,	16,	,	,	,	,	,	,	,	,	,	,	,	,	,
4398.06,	1.55508,	0.0101999,	17,	,	,	,	,	,	,	,	,	,	,	,	,	,
4444.47,	0.917894,	-0.00257974,	17,	,	,	,	,	,	,	,	,	,	,	,	,	,
4490.6,	0.0260635,	0.0212139,	17,	,	,	,	,	,	,	,	,	,	,	,	,	,
4537.38,	0.961357,	0.00442492,	18,	,	,	,	,	,	,	,	,	,	,	,	,	,
4583.78,	1.51165,	0.000164314,	18,	,	,	,	,	,	,	,	,	,	,	,	,	,
4630.55,	0.576071,	-0.00185414,	18,	,	,	,	,	,	,	,	,	,	,	,	,	,
4676.69,	0.367712,	0.000836317,	18,	,	,	,	,	,	,	,	,	,	,	,	,	,
4723.46,	1.30318,	0.00456985,	19,	,	,	,	,	,	,	,	,	,	,	,	,	,
4769.86,	1.16974,	-0.000582115,	19,	,	,	,	,	,	,	,	,	,	,	,	,	,
4816.64,	0.234241,	-0.00343968,	19,	,	,	,	,	,	,	,	,	,	,	,	,	,
4862.77,	0.709522,	0.000575836,	19,	,	,	,	,	,	,	,	,	,	,	,	,	,
4909.55,	1.64502,	0.0433931,	20,	,	,	,	,	,	,	,	,	,	,	,	,	,
4955.95,	0.8279174,	-0.00644848,	20,	,	,	,	,	,	,	,	,	,	,	,	,	,
5002.08,	0.115975,	0.00628441,	20,	,	,	,	,	,	,	,	,	,	,	,	,	,
5064.15,	0.877583,	2.548245e-06,	21,	,	,	,	,	,	,	,	,	,	,	,	,	,
5220.15,	0.913155,	2.262917e-06,	21,	,	,	,	,	,	,	,	,	,	,	,	,	,
5367.2,	1.25797,	0.00250309,	22,	,	,	,	,	,	,	,	,	,	,	,	,	,
5523.19,	1.5895,	0.0025034,	22,	,	,	,	,	,	,	,	,	,	,	,	,	,
5671.8,	1.44768,	2.19769e-06,	23,	,	,	,	,	,	,	,	,	,	,	,	,	,
5827.8,	1.3679,	2.35675e-06,	23,	,	,	,	,	,	,	,	,	,	,	,	,	,
5957.2,	1.62579,	0.00500406,	24,	,	,	,	,	,	,	,	,	,	,	,	,	,
6113.2,	1.64843,	0.00500429,	24,	,	,	,	,	,	,	,	,	,	,	,	,	,
6259.62,	1.49447,	2.192729e-06,	25,	,	,	,	,	,	,	,	,	,	,	,	,	,
6415.62,	1.415906,	2.24766e-06,	25,	,	,	,	,	,	,	,	,	,	,	,	,	,
6544.47,	1.66787,	0.0100039,	26,	,	,	,	,	,	,	,	,	,	,	,	,	,
6700.47,	1.693064,	0.0100038,	26,	,	,	,	,	,	,	,	,	,	,	,	,	,
6845.18,	1.56065,	2.29954e-06,	27,	,	,	,	,	,	,	,	,	,	,	,	,	,
7001.18,	1.43841,	2.42618e-06,	27,	,	,	,	,	,	,	,	,	,	,	,	,	,
7141.52,	1.55187,	0.0150038,	28,	,	,	,	,	,	,	,	,	,	,	,	,	,
7284.17,	1.72319,	0.0150048,	28,	,	,	,	,	,	,	,	,	,	,	,	,	,
7440.17,	1.731352,	0.01500397,	28,	,	,	,	,	,	,	,	,	,	,	,	,	,
7582.57,	1.45493,	2.29e-06,	29,	,	,	,	,	,	,	,	,	,	,	,	,	,
7738.57,	1.42542,	2.56541e-06,	29,	,	,	,	,	,	,	,	,	,	,	,	,	,
7865.14,	1.74619,	0.0200042,	30,	,	,	,	,	,	,	,	,	,	,	,	,	,
8021.14,	1.7538,	0.0200048,	30,	,	,	,	,	,	,	,	,	,	,	,	,	,
8162.35,	1.46994,	2.28352e-06,	31,	,	,	,	,	,	,	,	,	,	,	,	,	,
8318.35,	1.439218,	2.3106e-06,	31,	,	,	,	,	,	,	,	,	,	,	,	,	,
8341.41,	1.43605,	2.37812e-06,	31,	,	,	,	,	,	,	,	,	,	,	,	,	,