File: Quantification/development/chip crosscheck/OERonPt_RnD1_2019W4D2_noSEM_1-2.csv
ixdat version = 0.2.3
name = 2022-07-06 12_43_20 OER_chip crosscheck_SEM_off AND 2022-07-06 12_43_20 OER_chip crosscheck_SEM_off_01_01_CVA_DUSB0_C01.mpt AND 2022-07-06 12_43_20 OER_chip crosscheck_SEM_off_01_02_CP_DUSB0_C01.mpt
technique = EC-MS
tstamp = 1657104200.0
backend_name = BackendBase(none, address=none)
id = 95
timecol 'time/s' for: 'Ewe/V' and 'raw_current' and 'selector'
timecol 'C0M2 time [s]' for: 'M2'
timecol 'C6M44 time [s]' for: 'M44'
timecol 'C3M28 time [s]' for: 'M28'
timecol 'C1M4 time [s]' for: 'M4'
timecol 'C5M40 time [s]' for: 'M40'
timecol 'C4M32 time [s]' for: 'M32'
timecol 'C2M18 time [s]' for: 'M18'
aliases = {"M2": ["M2 [A]"], "M4": ["M4 [A]"], "M18": ["M18 [A]"], "M28": ["M28 [A]"], "M32": ["M32 [A]"], "M40": ["M40 [A]"], "M44": ["M44 [A]"], "t": ["time/s"], "raw_potential": ["Ewe/V"], "raw_current": ["<I>/mA", "I/mA"], "cycle": ["cycle number"]}
N_header_lines = 18

time/s,	Ewe/V,	raw_current,	selector,	C0M2 time [s],	M2,	C6M44 time [s],	M44,	C3M28 time [s],	M28,	C1M4 time [s],	M4,	C5M40 time [s],	M40,	C4M32 time [s],	M32,	C2M18 time [s],	M18
763.0,	0.858436,	-9.16579e-05,	0,	0.483222,	2.908068e-12,	0.930055,	3.828045e-14,	0.706139,	4.142325e-14,	0.557194,	2.105995e-17,	0.855083,	9.233947e-16,	0.781111,	2.645936e-13,	0.632166,	1.136798e-12
826.067,	1.48108,	0.000271927,	0,	276.954,	5.749273e-12,	277.401,	1.467387e-12,	277.177,	7.775537e-10,	277.028,	8.489983e-14,	277.326,	1.312893e-11,	277.252,	1.712172e-10,	277.103,	3.359329e-11
883.036,	0.341606,	-0.00185489,	0,	553.423,	6.161141e-12,	553.87,	2.63349e-12,	553.646,	7.008483e-11,	553.497,	4.063905e-10,	553.795,	2.389212e-12,	553.721,	3.173711e-11,	553.572,	3.424907e-11
939.634,	0.810858,	0.00148928,	0,	829.892,	6.603755e-12,	830.339,	9.314115e-13,	830.115,	4.250212e-12,	829.966,	4.604981e-10,	830.264,	1.371932e-13,	830.19,	9.35052e-12,	830.041,	3.557213e-11
995.362,	1.47507,	0.000101423,	1,	1106.36,	7.1641e-12,	1106.81,	7.285599e-13,	1106.58,	3.416324e-12,	1106.43,	4.636783e-10,	1106.73,	1.258249e-13,	1106.66,	4.052318e-12,	1106.51,	3.35084e-11
1052.33,	0.335636,	-0.00168597,	1,	1382.83,	7.235388e-12,	1383.28,	7.074919e-13,	1383.05,	3.286409e-12,	1382.9,	4.596634e-10,	1383.2,	1.21378e-13,	1383.13,	3.909037e-12,	1382.98,	3.224198e-11
1108.93,	0.816862,	0.00165886,	1,	1659.3,	7.419811e-12,	1659.75,	6.993312e-13,	1659.52,	3.142979e-12,	1659.37,	4.56214e-10,	1659.67,	1.206693e-13,	1659.6,	3.740838e-12,	1659.45,	3.107976e-11
1164.66,	1.46907,	4.66021e-05,	2,	1935.77,	7.489771e-12,	1936.22,	7.475503e-13,	1935.99,	2.917338e-12,	1935.84,	4.54413e-10,	1936.14,	9.634512e-14,	1936.07,	3.593216e-12,	1935.92,	3.065035e-11
1221.63,	0.32962,	-0.00212644,	2,	2212.24,	7.487284e-12,	2212.69,	7.733163e-13,	2212.46,	2.756885e-12,	2212.31,	4.521447e-10,	2212.61,	1.054252e-13,	2212.54,	4.099763e-12,	2212.39,	2.99589e-11
1278.23,	0.822838,	0.0019479,	2,	2488.71,	7.610894e-12,	2489.15,	7.767547e-13,	2488.93,	2.699558e-12,	2488.78,	4.507505e-10,	2489.08,	1.026104e-13,	2489.01,	3.409391e-12,	2488.86,	2.976331e-11
1333.95,	1.46306,	7.70451e-06,	3,	2765.18,	7.479427e-12,	2765.62,	7.931613e-13,	2765.4,	2.567038e-12,	2765.25,	4.500163e-10,	2765.55,	1.01521e-13,	2765.47,	4.646123e-12,	2765.33,	2.976447e-11
1390.92,	0.323577,	-0.00256225,	3,	3041.65,	7.683404e-12,	3042.09,	7.927603e-13,	3041.87,	2.494434e-12,	3041.72,	4.507965e-10,	3042.02,	8.305711e-14,	3041.94,	3.331842e-12,	3041.8,	2.929803e-11
1447.52,	0.828869,	0.00230256,	3,	3318.12,	7.310191e-12,	3318.56,	8.449241e-13,	3318.34,	4.419084e-12,	3318.19,	4.446218e-10,	3318.49,	1.310899e-13,	3318.41,	6.24336e-12,	3318.27,	2.921783e-11
1503.25,	1.45706,	-1.71811e-05,	4,	3594.59,	7.709329e-12,	3595.03,	8.295544e-13,	3594.81,	2.422932e-12,	3594.66,	4.51813e-10,	3594.96,	9.167953e-14,	3594.88,	3.315953e-12,	3594.73,	2.893832e-11
1560.22,	0.317586,	-0.00294213,	4,	3871.06,	7.223128e-12,	3871.5,	8.585766e-13,	3871.28,	2.433746e-12,	3871.13,	4.460939e-10,	3871.43,	9.348583e-14,	3871.35,	7.284413e-12,	3871.2,	2.93243e-11
1616.82,	0.834841,	0.00263342,	4,	4147.52,	7.612242e-12,	4147.97,	8.57807e-13,	4147.75,	2.467255e-12,	4147.6,	4.521364e-10,	4147.9,	8.623634e-14,	4147.82,	3.423845e-12,	4147.67,	2.904187e-11
1796.86,	0.917812,	2.22439e-06,	5,	4423.99,	7.10913e-12,	4424.44,	9.054753e-13,	4424.22,	2.390054e-12,	4424.07,	4.436867e-10,	4424.37,	8.776725e-14,	4424.29,	8.595295e-12,	4424.14,	2.930592e-11
1978.62,	1.45983,	0.00250351,	6,	4700.46,	7.475738e-12,	4700.91,	8.661622e-13,	4700.69,	2.366665e-12,	4700.54,	4.549668e-10,	4700.84,	9.588746e-14,	4700.76,	3.627215e-12,	4700.61,	2.924523e-11
2168.62,	1.59775,	0.00250328,	6,	4976.93,	7.691002e-12,	4977.38,	8.486016e-13,	4977.16,	2.342754e-12,	4977.01,	4.504521e-10,	4977.31,	7.615595e-14,	4977.23,	4.258803e-12,	4977.08,	2.872666e-11
2350.7,	1.154809,	2.07295e-06,	7,	5253.4,	7.812778e-12,	5253.85,	8.497032e-13,	5253.625,	2.320382e-12,	5253.48,	4.516862e-10,	5253.77,	7.489236e-14,	5253.7,	3.205012e-12,	5253.55,	2.854183e-11
2521.11,	1.17589,	0.00500315,	8,	5529.87,	7.787421e-12,	5530.32,	8.521776e-13,	5530.1,	2.325513e-12,	5529.95,	4.512408e-10,	5530.24,	9.097485e-14,	5530.17,	3.345413e-12,	5530.02,	2.854073e-11
2675.99,	1.64475,	0.00500398,	8,	5806.34,	7.885516e-12,	5806.79,	8.434661e-13,	5806.56,	2.300278e-12,	5806.41,	4.497187e-10,	5806.71,	6.654937e-14,	5806.64,	3.181976e-12,	5806.49,	2.832416e-11
2855.88,	1.43596,	2.26406e-06,	9,	6082.81,	7.944471e-12,	6083.26,	8.256503e-13,	6083.03,	2.300218e-12,	6082.88,	4.485691e-10,	6083.18,	8.800216e-14,	6083.11,	3.15909e-12,	6082.96,	2.808804e-11
3045.88,	1.12269,	2.28466e-06,	9,	6359.28,	7.843922e-12,	6359.73,	8.357468e-13,	6359.5,	2.321103e-12,	6359.35,	4.476627e-10,	6359.65,	9.759656e-14,	6359.58,	3.750829e-12,	6359.43,	2.819042e-11
3178.63,	1.6797,	0.0100039,	10,	6635.75,	7.98717e-12,	6636.2,	8.170279e-13,	6635.97,	2.260119e-12,	6635.82,	4.486105e-10,	6636.12,	8.313811e-14,	6636.05,	3.145284e-12,	6635.9,	2.790606e-11
3368.63,	1.69874,	0.0100036,	10,	6912.22,	7.71265e-12,	6912.67,	8.372655e-13,	6912.44,	2.538988e-12,	6912.29,	4.473328e-10,	6912.59,	7.5512e-14,	6912.52,	4.494321e-12,	6912.37,	2.816278e-11
3546.59,	1.3324,	2.25529e-06,	11,	7188.69,	7.952094e-12,	7189.13,	8.149177e-13,	7188.91,	2.279975e-12,	7188.76,	4.491037e-10,	7189.06,	7.56011e-14,	7188.99,	3.189165e-12,	7188.84,	2.791194e-11
3720.31,	1.29738,	0.0150037,	12,	7465.16,	7.565822e-12,	7465.6,	8.332399e-13,	7465.38,	2.252598e-12,	7465.23,	4.466843e-10,	7465.53,	8.208107e-14,	7465.45,	5.748382e-12,	7465.31,	2.844623e-11
3873.54,	1.72371,	0.015004,	12,	7741.63,	7.847134e-12,	7742.07,	8.088103e-13,	7741.85,	2.863465e-12,	7741.7,	4.474318e-10,	7742,	9.048884e-14,	7741.92,	3.308785e-12,	7741.78,	2.800106e-11
4050.1,	1.49889,	1.852472e-06,	13,	8018.1,	7.375526e-12,	8018.54,	8.355444e-13,	8018.32,	2.263553e-12,	8018.17,	4.44326e-10,	8018.47,	8.145332e-14,	8018.39,	7.068439e-12,	8018.24,	2.855313e-11
4238.62,	1.29168,	1.93792e-06,	13,	8294.57,	7.736026e-12,	8295.01,	8.095475e-13,	8294.79,	2.235563e-12,	8294.64,	4.508916e-10,	8294.94,	7.944857e-14,	8294.86,	3.336916e-12,	8294.71,	2.838941e-11
4380.63,	1.73983,	0.0200042,	14,	8571.03,	7.260501e-12,	8571.48,	8.321708e-13,	8571.26,	2.25864e-12,	8571.11,	4.429707e-10,	8571.41,	8.551546e-14,	8571.33,	8.284078e-12,	8571.18,	2.863734e-11
4570.63,	1.75278,	0.0200043,	14,	8847.5,	7.598012e-12,	8847.95,	8.124716e-13,	8847.73,	2.233028e-12,	8847.58,	4.536538e-10,	8847.88,	8.081746e-14,	8847.8,	3.58642e-12,	8847.65,	2.873056e-11
4745.96,	1.42461,	2.16565e-06,	15,	9123.97,	7.883025e-12,	9124.42,	7.861871e-13,	9124.2,	2.216334e-12,	9124.05,	4.496302e-10,	9124.35,	7.394058e-14,	9124.27,	3.363144e-12,	9124.12,	2.813172e-11
4932.3,	0.919411,	0.000255019,	16,	9400.44,	7.957334e-12,	9400.89,	7.725955e-13,	9400.67,	2.233992e-12,	9400.52,	4.482736e-10,	9400.82,	8.218635e-14,	9400.74,	3.168453e-12,	9400.59,	2.799209e-11
4988.9,	1.34966,	-0.000212415,	16,	9676.91,	7.954455e-12,	9677.36,	7.783829e-13,	9677.14,	2.197676e-12,	9676.99,	4.475384e-10,	9677.29,	7.321564e-14,	9677.21,	3.168036e-12,	9677.06,	2.781488e-11
5045.87,	0.210164,	-0.00383496,	16,	9953.38,	8.012912e-12,	9953.83,	7.726886e-13,	9953.61,	2.662461e-12,	9953.46,	4.451297e-10,	9953.75,	9.345747e-14,	9953.68,	3.178137e-12,	9953.53,	2.781231e-11
5102.2,	0.93735,	0.00450833,	17,	10229.8,	8.052391e-12,	10230.3,	7.56197e-13,	10230.1,	2.199596e-12,	10229.9,	4.448742e-10,	10230.2,	8.030311e-14,	10230.2,	3.085068e-12,	10230.0,	2.768241e-11
5158.8,	1.33166,	-0.00030817,	17,	10506.3,	8.086266e-12,	10506.8,	7.422813e-13,	10506.5,	2.175571e-12,	10506.4,	4.456157e-10,	10506.7,	8.411009e-14,	10506.6,	3.102969e-12,	10506.5,	2.765654e-11
5215.77,	0.192194,	-0.00389072,	17,	10782.8,	8.114647e-12,	10783.2,	7.371621e-13,	10783,	2.182942e-12,	10782.9,	4.446715e-10,	10783.2,	8.948848e-14,	10783.1,	3.074393e-12,	10782.9,	2.765145e-11
5272.09,	0.955346,	0.00435617,	18,	11059.3,	5.207588e-12,	11059.7,	1.022188e-12,	11059.5,	7.653083e-10,	11059.3,	9.216552e-14,	11059.6,	1.264837e-11,	11059.6,	1.604469e-10,	11059.4,	1.742038e-11
5328.69,	1.31366,	-0.000322805,	18,	,	,	,	,	,	,	,	,	,	,	,	,	,
5385.66,	0.1742321,	-0.00441304,	18,	,	,	,	,	,	,	,	,	,	,	,	,	,
5441.99,	0.973337,	0.00425638,	19,	,	,	,	,	,	,	,	,	,	,	,	,	,
5498.59,	1.29567,	-0.000338812,	19,	,	,	,	,	,	,	,	,	,	,	,	,	,
5555.56,	0.156234,	-0.00496015,	19,	,	,	,	,	,	,	,	,	,	,	,	,	,
5611.88,	0.9913401,	0.00416021,	20,	,	,	,	,	,	,	,	,	,	,	,	,	,
5668.48,	1.27768,	-0.000359964,	20,	,	,	,	,	,	,	,	,	,	,	,	,	,
5725.45,	0.13825,	-0.00561455,	20,	,	,	,	,	,	,	,	,	,	,	,	,	,
5792.32,	0.8797648,	2.20875e-06,	21,	,	,	,	,	,	,	,	,	,	,	,	,	,
5982.32,	0.933132,	1.97377e-06,	21,	,	,	,	,	,	,	,	,	,	,	,	,	,
6162.94,	1.559424,	0.00250366,	22,	,	,	,	,	,	,	,	,	,	,	,	,	,
6352.94,	1.604241,	0.0025034,	22,	,	,	,	,	,	,	,	,	,	,	,	,	,
6535.72,	1.32723,	2.11682e-06,	23,	,	,	,	,	,	,	,	,	,	,	,	,	,
6691.36,	1.62503,	0.00500337,	24,	,	,	,	,	,	,	,	,	,	,	,	,	,
6881.36,	1.65243,	0.00500311,	24,	,	,	,	,	,	,	,	,	,	,	,	,	,
7061.51,	1.42986,	2.1584e-06,	25,	,	,	,	,	,	,	,	,	,	,	,	,	,
7251.51,	1.33815,	2.01345e-06,	25,	,	,	,	,	,	,	,	,	,	,	,	,	,
7408.47,	1.69209,	0.010004,	26,	,	,	,	,	,	,	,	,	,	,	,	,	,
7587.15,	1.52871,	2.21714e-06,	27,	,	,	,	,	,	,	,	,	,	,	,	,	,
7777.15,	1.40919,	2.12063e-06,	27,	,	,	,	,	,	,	,	,	,	,	,	,	,
7935.23,	1.717098,	0.0150045,	28,	,	,	,	,	,	,	,	,	,	,	,	,	,
8125.23,	1.729946,	0.015004,	28,	,	,	,	,	,	,	,	,	,	,	,	,	,
8301.52,	1.45281,	2.12102e-06,	29,	,	,	,	,	,	,	,	,	,	,	,	,	,
8476.51,	1.54967,	0.02000358,	30,	,	,	,	,	,	,	,	,	,	,	,	,	,
8650.51,	1.74948,	0.0200042,	30,	,	,	,	,	,	,	,	,	,	,	,	,	,
8826.32,	1.49867,	2.108809e-06,	31,	,	,	,	,	,	,	,	,	,	,	,	,	,
9016.32,	1.43623,	1.99208e-06,	31,	,	,	,	,	,	,	,	,	,	,	,	,	,
9122.74,	1.60332,	0.00351911,	32,	,	,	,	,	,	,	,	,	,	,	,	,	,
9179.32,	0.665982,	-0.0461464,	32,	,	,	,	,	,	,	,	,	,	,	,	,	,
9235.65,	0.481615,	5.70749e-05,	32,	,	,	,	,	,	,	,	,	,	,	,	,	,
9292.05,	1.60962,	0.0225498,	33,	,	,	,	,	,	,	,	,	,	,	,	,	,
9348.61,	0.660024,	-0.00685683,	33,	,	,	,	,	,	,	,	,	,	,	,	,	,
9404.94,	0.487627,	0.00010367,	33,	,	,	,	,	,	,	,	,	,	,	,	,	,
9461.34,	1.61562,	0.0250598,	34,	,	,	,	,	,	,	,	,	,	,	,	,	,
9517.91,	0.654015,	-0.00589488,	34,	,	,	,	,	,	,	,	,	,	,	,	,	,
9574.24,	0.493611,	0.000134,	34,	,	,	,	,	,	,	,	,	,	,	,	,	,
9599.08,	0.990639,	0.00439324,	35,	,	,	,	,	,	,	,	,	,	,	,	,	,