File: Quantification/development/HER + OER repeatability multiple MS/HERonPt_RnD1_newMS_nonaqu.csv
ixdat version = 0.2.2dev
name = 2022-04-07 13_20_11 HER on Pt repeatability non-aqu.tsv
technique = EC-MS
tstamp = 1649330411.0
backend_name = BackendBase(none, address=none)
id = 1
timecol 'time/s' for: 'Ewe/V' and 'I/mA' and 'selector'
timecol 'M40-x' for: 'M40'
timecol 'M28-x' for: 'M28'
timecol 'M18-x' for: 'M18'
timecol 'M4-x' for: 'M4'
timecol 'M32-x' for: 'M32'
timecol 'M44-x' for: 'M44'
timecol 'M2-x' for: 'M2'
aliases = {"t": ["time/s"], "raw_potential": ["Ewe/V", "<Ewe>/V"], "raw_current": ["I/mA", "<I>/mA"], "cycle": ["cycle number"]}
N_header_lines = 18

time/s,	Ewe/V,	I/mA,	selector,	M40-x,	M40,	M28-x,	M28,	M18-x,	M18,	M4-x,	M4,	M32-x,	M32,	M44-x,	M44,	M2-x,	M2
336.708,	0.9296044,	-0.0002409944,	0,	0.912514,	9.146161e-10,	0.763584,	8.312599e-08,	0.689619,	2.575452e-09,	0.614655,	4.239637e-09,	0.838549,	2.240594e-08,	0.987478,	1.425246e-10,	0.540689,	1.877197e-09
380.968,	1.6295,	0.03491049,	0,	157.333,	8.850111e-10,	157.184,	7.943709e-08,	157.109,	2.239882e-09,	157.035,	5.645054e-09,	157.258,	2.153399e-08,	157.407,	1.391895e-10,	156.96,	1.843003e-09
426.281,	0.8651696,	-0.006225987,	0,	313.753,	8.5687e-12,	313.604,	5.107675e-10,	313.53,	4.880711e-09,	313.455,	4.904993e-08,	313.679,	3.53031e-10,	313.828,	7.083772e-11,	313.381,	2.24564e-09
471.62,	0.06279178,	0.01455869,	0,	470.172,	6.250105e-12,	470.023,	3.602549e-10,	469.948,	4.930131e-09,	469.874,	4.94492e-08,	470.097,	2.74665e-10,	470.246,	6.160333e-11,	469.799,	4.543138e-09
517.114,	0.9727824,	0.003116999,	1,	626.594,	4.84035e-12,	626.445,	3.137825e-10,	626.37,	4.880942e-09,	626.296,	4.920912e-08,	626.519,	2.568947e-10,	626.668,	7.230932e-11,	626.221,	2.429556e-09
562.529,	1.519878,	-0.006059557,	1,	783.013,	4.854547e-12,	782.864,	2.910485e-10,	782.79,	4.853863e-09,	782.715,	4.929279e-08,	782.939,	2.495405e-10,	783.088,	7.404637e-11,	782.641,	2.445889e-09
608.142,	0.6074957,	-0.003851305,	1,	939.434,	4.61432e-12,	939.286,	2.7354e-10,	939.211,	4.816841e-09,	939.136,	4.918364e-08,	939.359,	2.533946e-10,	939.509,	7.067227e-11,	939.062,	2.454185e-09
653.17,	0.3142844,	0.003730806,	1,	1095.85,	4.482457e-12,	1095.7,	2.708743e-10,	1095.63,	4.718523e-09,	1095.56,	4.951725e-08,	1095.78,	2.560449e-10,	1095.93,	7.031589e-11,	1095.48,	2.466803e-09
698.217,	1.215083,	0.007025052,	2,	1252.27,	4.541653e-12,	1252.125,	2.638473e-10,	1252.05,	4.725036e-09,	1251.98,	4.864522e-08,	1252.2,	3.157685e-10,	1252.35,	7.620224e-11,	1251.9,	2.449451e-09
743.555,	1.278907,	0.001630962,	2,	1408.69,	4.149541e-12,	1408.55,	2.528828e-10,	1408.47,	4.672087e-09,	1408.4,	4.909635e-08,	1408.62,	2.322789e-10,	1408.77,	5.354846e-11,	1408.32,	2.485328e-09
789.115,	0.3676285,	-4.135474e-05,	2,	1565.11,	4.190182e-12,	1564.96,	2.474617e-10,	1564.89,	4.684399e-09,	1564.82,	4.886355e-08,	1565.04,	2.28822e-10,	1565.19,	4.924848e-11,	1564.74,	2.485359e-09
834.585,	0.5627933,	0.000267457,	2,	1721.53,	4.147918e-12,	1721.38,	2.452609e-10,	1721.31,	4.656124e-09,	1721.24,	4.892899e-08,	1721.46,	2.243904e-10,	1721.61,	4.678464e-11,	1721.16,	2.624989e-09
880.229,	1.475913,	0.01453196,	3,	1877.95,	4.222741e-12,	1877.81,	2.392642e-10,	1877.73,	4.636812e-09,	1877.66,	4.871431e-08,	1877.88,	2.213151e-10,	1878.03,	4.617275e-11,	1877.58,	3.249506e-09
925.164,	1.026482,	-0.001266295,	3,	2034.37,	3.869131e-12,	2034.22,	2.361097e-10,	2034.15,	4.573839e-09,	2034.08,	4.873982e-08,	2034.3,	2.210353e-10,	2034.45,	4.553559e-11,	2034,	2.493244e-09
970.328,	0.1230241,	-0.01375008,	3,	2190.8,	4.144959e-12,	2190.65,	2.339182e-10,	2190.57,	4.560664e-09,	2190.5,	4.836144e-08,	2190.72,	2.184159e-10,	2190.87,	4.442829e-11,	2190.42,	2.50138e-09
1015.76,	0.8065801,	0.001672188,	3,	2347.21,	3.940206e-12,	2347.07,	2.336225e-10,	2346.99,	4.566535e-09,	2346.92,	4.878708e-08,	2347.14,	2.162982e-10,	2347.29,	4.49674e-11,	2346.84,	4.153459e-09
1061.08,	1.687666,	0.07245421,	4,	2503.63,	3.904708e-12,	2503.49,	2.309109e-10,	2503.41,	4.586458e-09,	2503.34,	4.85652e-08,	2503.56,	2.173846e-10,	2503.71,	4.477031e-11,	2503.26,	4.1788e-09
1105.97,	0.7898086,	-0.01346264,	4,	2660.05,	4.012567e-12,	2659.9,	2.304492e-10,	2659.83,	4.577771e-09,	2659.76,	4.883075e-08,	2659.98,	2.13588e-10,	2660.13,	4.434468e-11,	2659.68,	2.519728e-09
1151.77,	0.1472033,	0.006860149,	4,	2816.47,	3.937009e-12,	2816.33,	2.279584e-10,	2816.25,	4.451203e-09,	2816.18,	4.852516e-08,	2816.4,	2.155803e-10,	2816.55,	4.482694e-11,	2816.1,	2.51235e-09
1197.64,	1.064823,	0.006253977,	5,	2972.89,	4.096556e-12,	2972.75,	2.290095e-10,	2972.67,	4.559044e-09,	2972.6,	4.922335e-08,	2972.82,	2.121885e-10,	2972.97,	4.371943e-11,	2972.52,	5.976236e-09
1243.04,	1.428276,	-0.0006574513,	5,	3129.31,	3.926785e-12,	3129.16,	2.256065e-10,	3129.09,	4.503044e-09,	3129.02,	4.849606e-08,	3129.24,	2.124016e-10,	3129.39,	4.362572e-11,	3128.94,	6.014181e-09
1288.49,	0.5190498,	-0.001364016,	5,	3285.73,	3.571895e-12,	3285.59,	2.239459e-10,	3285.51,	4.481323e-09,	3285.44,	4.826319e-08,	3285.66,	2.100805e-10,	3285.81,	4.311327e-11,	3285.36,	2.508332e-09
1333.49,	0.4021076,	-0.0006910427,	5,	3442.15,	3.914974e-12,	3442.01,	2.220701e-10,	3441.93,	4.456819e-09,	3441.86,	4.854378e-08,	3442.08,	2.098854e-10,	3442.23,	4.250303e-11,	3441.78,	2.491583e-09
1378.75,	0.8723978,	1.703661e-06,	6,	3598.58,	3.960201e-12,	3598.43,	2.211488e-10,	3598.35,	4.476184e-09,	3598.28,	4.807768e-08,	3598.5,	2.129188e-10,	3598.65,	4.253638e-11,	3598.2,	7.752812e-09
1424.3,	0.8618345,	1.665515e-06,	6,	3755,	3.587465e-12,	3754.85,	2.18706e-10,	3754.77,	4.524757e-09,	3754.7,	4.821597e-08,	3754.92,	2.069859e-10,	3755.07,	4.300338e-11,	3754.62,	7.776777e-09
1469.54,	0.8629308,	1.779952e-06,	6,	3911.41,	3.890687e-12,	3911.27,	2.201155e-10,	3911.19,	4.469361e-09,	3911.12,	4.8085e-08,	3911.34,	2.081267e-10,	3911.49,	4.213997e-11,	3911.04,	2.511661e-09
1514.84,	0.8664685,	1.932533e-06,	6,	4067.84,	3.659806e-12,	4067.69,	2.190967e-10,	4067.61,	4.408463e-09,	4067.54,	4.795402e-08,	4067.76,	2.090961e-10,	4067.91,	4.21564e-11,	4067.46,	6.492879e-09
1560.29,	0.870438,	1.589224e-06,	6,	4224.26,	3.898199e-12,	4224.11,	2.181273e-10,	4224.03,	4.510561e-09,	4223.96,	4.813229e-08,	4224.18,	2.081038e-10,	4224.33,	4.200377e-11,	4223.88,	9.464879e-09
1605.87,	0.8741629,	1.703661e-06,	6,	4380.67,	3.977991e-12,	4380.53,	2.164648e-10,	4380.45,	4.429839e-09,	4380.38,	4.778668e-08,	4380.6,	2.049397e-10,	4380.75,	4.193108e-11,	4380.3,	2.805109e-09
1651.39,	0.8771963,	1.360351e-06,	6,	4537.1,	3.552501e-12,	4536.95,	2.179083e-10,	4536.87,	4.416171e-09,	4536.8,	4.781572e-08,	4537.02,	2.076605e-10,	4537.17,	4.088921e-11,	4536.72,	2.509372e-09
1696.99,	0.1322923,	-0.00249793,	6,	4693.52,	3.628293e-12,	4693.37,	2.163333e-10,	4693.29,	4.380709e-09,	4693.22,	4.774298e-08,	4693.44,	2.065669e-10,	4693.59,	4.176934e-11,	4693.14,	2.516045e-09
1742.52,	0.0491377,	-0.002497739,	6,	,	,	,	,	,	,	,	,	,	,	,	,	,
1787.92,	0.04697536,	-0.002497816,	6,	,	,	,	,	,	,	,	,	,	,	,	,	,
1833.3,	0.04650545,	-0.002498388,	6,	,	,	,	,	,	,	,	,	,	,	,	,	,
1878.55,	0.04626858,	-0.002497777,	6,	,	,	,	,	,	,	,	,	,	,	,	,	,
1923.54,	0.04613105,	-0.002497663,	6,	,	,	,	,	,	,	,	,	,	,	,	,	,
1968.91,	0.06890441,	1.551079e-06,	6,	,	,	,	,	,	,	,	,	,	,	,	,	,
2014.22,	0.1066766,	2.008824e-06,	6,	,	,	,	,	,	,	,	,	,	,	,	,	,
2059.78,	0.1307451,	2.085115e-06,	6,	,	,	,	,	,	,	,	,	,	,	,	,	,
2105.14,	0.1549473,	2.504715e-06,	6,	,	,	,	,	,	,	,	,	,	,	,	,	,
2150.4,	0.1829966,	2.313988e-06,	6,	,	,	,	,	,	,	,	,	,	,	,	,	,
2195.78,	0.2147135,	2.123261e-06,	6,	,	,	,	,	,	,	,	,	,	,	,	,	,
2241.15,	0.2468735,	2.046969e-06,	6,	,	,	,	,	,	,	,	,	,	,	,	,	,
2286.4,	0.03847498,	-0.004997564,	6,	,	,	,	,	,	,	,	,	,	,	,	,	,
2331.9,	0.03645018,	-0.004998632,	6,	,	,	,	,	,	,	,	,	,	,	,	,	,
2377.28,	0.03627444,	-0.004998403,	6,	,	,	,	,	,	,	,	,	,	,	,	,	,
2422.67,	0.03622095,	-0.004998327,	6,	,	,	,	,	,	,	,	,	,	,	,	,	,
2467.92,	0.03610252,	-0.004998326,	6,	,	,	,	,	,	,	,	,	,	,	,	,	,
2513.53,	0.03609488,	-0.004997754,	6,	,	,	,	,	,	,	,	,	,	,	,	,	,
2558.86,	0.03608724,	-0.004998098,	6,	,	,	,	,	,	,	,	,	,	,	,	,	,
2604.21,	0.0933129,	2.313988e-06,	6,	,	,	,	,	,	,	,	,	,	,	,	,	,
2649.49,	0.1152305,	1.856243e-06,	6,	,	,	,	,	,	,	,	,	,	,	,	,	,
2694.73,	0.1342675,	2.123261e-06,	6,	,	,	,	,	,	,	,	,	,	,	,	,	,
2740.16,	0.1543666,	1.589224e-06,	6,	,	,	,	,	,	,	,	,	,	,	,	,	,
2785.45,	0.1770903,	2.237697e-06,	6,	,	,	,	,	,	,	,	,	,	,	,	,	,
2830.9,	0.2030919,	2.504715e-06,	6,	,	,	,	,	,	,	,	,	,	,	,	,	,
2876.35,	0.02864511,	-0.009997937,	6,	,	,	,	,	,	,	,	,	,	,	,	,	,
2921.72,	0.02764799,	-0.009998127,	6,	,	,	,	,	,	,	,	,	,	,	,	,	,
2967.09,	0.0275563,	-0.009997631,	6,	,	,	,	,	,	,	,	,	,	,	,	,	,
3012.37,	0.02758687,	-0.009998394,	6,	,	,	,	,	,	,	,	,	,	,	,	,	,
3057.66,	0.02753338,	-0.009997937,	6,	,	,	,	,	,	,	,	,	,	,	,	,	,
3102.81,	0.02752192,	-0.009997899,	6,	,	,	,	,	,	,	,	,	,	,	,	,	,
3147.86,	0.02748754,	-0.009997822,	6,	,	,	,	,	,	,	,	,	,	,	,	,	,
3193.01,	0.08233309,	2.275842e-06,	6,	,	,	,	,	,	,	,	,	,	,	,	,	,
3238.41,	0.1039603,	2.199552e-06,	6,	,	,	,	,	,	,	,	,	,	,	,	,	,
3283.74,	0.1214921,	1.665515e-06,	6,	,	,	,	,	,	,	,	,	,	,	,	,	,
3329.32,	0.1381834,	2.199551e-06,	6,	,	,	,	,	,	,	,	,	,	,	,	,	,
3375.02,	0.1562882,	2.008824e-06,	6,	,	,	,	,	,	,	,	,	,	,	,	,	,
3420.57,	0.1765096,	1.62737e-06,	6,	,	,	,	,	,	,	,	,	,	,	,	,	,
3465.96,	0.03026878,	-0.01499762,	6,	,	,	,	,	,	,	,	,	,	,	,	,	,
3511.63,	0.02299858,	-0.01499766,	6,	,	,	,	,	,	,	,	,	,	,	,	,	,
3557.16,	0.02289543,	-0.01499797,	6,	,	,	,	,	,	,	,	,	,	,	,	,	,
3602.8,	0.0228916,	-0.01499789,	6,	,	,	,	,	,	,	,	,	,	,	,	,	,
3648.31,	0.02288778,	-0.01499774,	6,	,	,	,	,	,	,	,	,	,	,	,	,	,
3693.61,	0.02284576,	-0.0149977,	6,	,	,	,	,	,	,	,	,	,	,	,	,	,
3739.03,	0.02286104,	-0.01499789,	6,	,	,	,	,	,	,	,	,	,	,	,	,	,
3784.15,	0.07370282,	1.665515e-06,	6,	,	,	,	,	,	,	,	,	,	,	,	,	,
3829.42,	0.09621639,	1.818097e-06,	6,	,	,	,	,	,	,	,	,	,	,	,	,	,
3874.57,	0.1127128,	1.932533e-06,	6,	,	,	,	,	,	,	,	,	,	,	,	,	,
3919.9,	0.1280555,	2.04697e-06,	6,	,	,	,	,	,	,	,	,	,	,	,	,	,
3965.35,	0.1435663,	1.779952e-06,	6,	,	,	,	,	,	,	,	,	,	,	,	,	,
4010.48,	0.1603493,	2.046969e-06,	6,	,	,	,	,	,	,	,	,	,	,	,	,	,
4055.99,	0.178947,	2.504715e-06,	6,	,	,	,	,	,	,	,	,	,	,	,	,	,
4101.19,	0.01987349,	-0.01999746,	6,	,	,	,	,	,	,	,	,	,	,	,	,	,
4146.43,	0.01974742,	-0.01999788,	6,	,	,	,	,	,	,	,	,	,	,	,	,	,
4191.66,	0.01977799,	-0.0199983,	6,	,	,	,	,	,	,	,	,	,	,	,	,	,
4236.95,	0.01981237,	-0.01999792,	6,	,	,	,	,	,	,	,	,	,	,	,	,	,
4282.14,	0.01976652,	-0.01999796,	6,	,	,	,	,	,	,	,	,	,	,	,	,	,
4327.39,	0.01979709,	-0.01999792,	6,	,	,	,	,	,	,	,	,	,	,	,	,	,
4372.95,	0.05964378,	1.28406e-06,	6,	,	,	,	,	,	,	,	,	,	,	,	,	,
4418.18,	0.08790703,	2.046969e-06,	6,	,	,	,	,	,	,	,	,	,	,	,	,	,
4463.6,	0.1043156,	2.390279e-06,	6,	,	,	,	,	,	,	,	,	,	,	,	,	,
4508.74,	0.1188216,	2.04697e-06,	6,	,	,	,	,	,	,	,	,	,	,	,	,	,
4554.18,	0.13298,	1.665515e-06,	6,	,	,	,	,	,	,	,	,	,	,	,	,	,
4599.08,	0.1474135,	1.703661e-06,	6,	,	,	,	,	,	,	,	,	,	,	,	,	,
4644.41,	0.1633827,	2.313988e-06,	6,	,	,	,	,	,	,	,	,	,	,	,	,	,
4659.85,	0.1692241,	2.390279e-06,	6,	,	,	,	,	,	,	,	,	,	,	,	,	,