File: Quantification/development/HER + OER repeatability multiple MS/OERonPt_RnD1_2ndMS.csv
ixdat version = 0.2.2dev
name = 2022-03-30 12_51_35 OER on Pt repeatability.tsv
technique = EC-MS
tstamp = 1648637495.0
backend_name = BackendBase(none, address=none)
id = 1
timecol 'time/s' for: 'Ewe/V' and 'I/mA' and 'selector'
timecol 'M40-x' for: 'M40'
timecol 'M28-x' for: 'M28'
timecol 'M18-x' for: 'M18'
timecol 'M4-x' for: 'M4'
timecol 'M32-x' for: 'M32'
timecol 'M44-x' for: 'M44'
timecol 'M2-x' for: 'M2'
aliases = {"t": ["time/s"], "raw_potential": ["Ewe/V", "<Ewe>/V"], "raw_current": ["I/mA", "<I>/mA"], "cycle": ["cycle number"]}
N_header_lines = 18

time/s,	Ewe/V,	I/mA,	selector,	M40-x,	M40,	M28-x,	M28,	M18-x,	M18,	M4-x,	M4,	M32-x,	M32,	M44-x,	M44,	M2-x,	M2
97.0336,	0.8719344,	0.0001199297,	0,	0.920974,	3.406429e-12,	0.772048,	1.874691e-10,	0.697085,	3.288826e-09,	0.623122,	4.181314e-08,	0.846011,	1.168593e-10,	0.994937,	4.307108e-11,	0.548159,	8.507916e-10
139.058,	1.526284,	0.01181297,	0,	156.79,	3.376427e-12,	156.641,	1.849054e-10,	156.567,	3.111593e-09,	156.492,	3.893921e-08,	156.716,	3.65796e-10,	156.865,	6.844091e-11,	156.418,	8.203305e-10
181.636,	1.023165,	-0.0008689244,	0,	312.659,	3.291752e-12,	312.51,	1.816716e-10,	312.436,	3.114102e-09,	312.361,	3.911199e-08,	312.585,	1.170587e-10,	312.734,	5.917886e-11,	312.287,	8.312128e-10
223.913,	0.177475,	-0.003425687,	0,	468.53,	3.165e-12,	468.381,	1.78735e-10,	468.307,	3.093947e-09,	468.232,	3.901014e-08,	468.456,	1.10702e-10,	468.605,	5.123665e-11,	468.158,	8.327045e-10
266.811,	0.6914514,	0.000924016,	0,	624.4,	3.138122e-12,	624.251,	1.77714e-10,	624.177,	3.093396e-09,	624.102,	3.895556e-08,	624.326,	1.105538e-10,	624.475,	4.739304e-11,	624.028,	8.284696e-10
309.551,	1.546402,	0.009464244,	1,	780.27,	3.068993e-12,	780.121,	1.771355e-10,	780.047,	3.105863e-09,	779.972,	3.895556e-08,	780.196,	1.102906e-10,	780.345,	4.479688e-11,	779.898,	8.324919e-10
352.466,	0.9961123,	-0.0007074567,	1,	936.139,	3.398594e-12,	935.99,	1.77683e-10,	935.915,	3.085299e-09,	935.841,	3.885186e-08,	936.064,	1.092021e-10,	936.213,	4.449555e-11,	935.766,	9.277735e-10
395.098,	0.143546,	-0.003000832,	1,	1092.01,	3.028617e-12,	1091.86,	1.756793e-10,	1091.79,	3.068862e-09,	1091.71,	3.862445e-08,	1091.93,	1.083696e-10,	1092.08,	3.985515e-11,	1091.64,	8.232584e-10
437.767,	0.7208226,	0.0006518494,	1,	1247.88,	3.197456e-12,	1247.73,	1.752088e-10,	1247.65,	3.05024e-09,	1247.58,	3.844254e-08,	1247.8,	1.07253e-10,	1247.95,	4.250172e-11,	1247.51,	8.229401e-10
480.853,	1.582672,	0.01330473,	2,	1403.75,	2.875731e-12,	1403.6,	1.676894e-10,	1403.52,	3.024002e-09,	1403.45,	3.82352e-08,	1403.67,	1.072661e-10,	1403.82,	4.44666e-11,	1403.375,	8.164739e-10
523.189,	0.9715282,	-0.001485784,	2,	1559.62,	2.872079e-12,	1559.47,	1.650974e-10,	1559.39,	3.04281e-09,	1559.32,	3.822064e-08,	1559.54,	1.074554e-10,	1559.69,	4.132826e-11,	1559.24,	8.125376e-10
566.182,	0.1115656,	-0.008140314,	2,	1715.49,	2.881052e-12,	1715.34,	1.625237e-10,	1715.26,	3.019185e-09,	1715.19,	3.788413e-08,	1715.41,	1.073216e-10,	1715.56,	3.847745e-11,	1715.11,	8.081179e-10
608.88,	0.7535748,	-0.0007051664,	2,	1871.36,	2.904242e-12,	1871.21,	1.640365e-10,	1871.13,	2.98843e-09,	1871.06,	3.768039e-08,	1871.28,	2.303802e-10,	1871.43,	4.145399e-11,	1870.98,	7.998343e-10
651.216,	1.600338,	0.01831558,	3,	2027.23,	2.86404e-12,	2027.08,	1.651168e-10,	2027,	2.983323e-09,	2026.93,	3.759309e-08,	2027.15,	2.49372e-10,	2027.3,	3.959085e-11,	2026.85,	7.988056e-10
694.022,	0.9445218,	-0.001594193,	3,	2183.1,	2.872213e-12,	2182.95,	1.646026e-10,	2182.87,	2.974851e-09,	2182.8,	3.764773e-08,	2183.02,	1.138048e-10,	2183.17,	3.862435e-11,	2182.72,	8.051271e-10
736.829,	0.0884369,	-0.00439373,	3,	2338.97,	2.88632e-12,	2338.82,	1.6435e-10,	2338.74,	2.98336e-09,	2338.67,	3.766404e-08,	2338.89,	1.07899e-10,	2339.04,	3.815967e-11,	2338.59,	8.009458e-10
779.68,	0.7795879,	0.0008988224,	3,	2494.84,	2.820257e-12,	2494.69,	1.640106e-10,	2494.61,	2.956569e-09,	2494.54,	3.709286e-08,	2494.76,	3.922156e-10,	2494.91,	3.830721e-11,	2494.46,	7.857262e-10
822.38,	1.633835,	0.02982254,	4,	2650.7,	3.007137e-12,	2650.56,	1.639535e-10,	2650.48,	2.93071e-09,	2650.41,	3.687461e-08,	2650.63,	4.027103e-10,	2650.78,	3.921367e-11,	2650.33,	7.76775e-10
865.029,	0.9139854,	-0.002772945,	4,	2806.57,	2.849889e-12,	2806.42,	1.642484e-10,	2806.35,	2.938768e-09,	2806.28,	3.71238e-08,	2806.5,	1.136614e-10,	2806.65,	3.809761e-11,	2806.2,	7.913821e-10
907.68,	0.0611593,	-0.005782046,	4,	2962.44,	2.869019e-12,	2962.3,	1.592094e-10,	2962.22,	2.925101e-09,	2962.15,	3.695641e-08,	2962.37,	1.086288e-10,	2962.52,	3.695038e-11,	2962.07,	7.877609e-10
950.339,	0.08381423,	1.325301e-06,	5,	3118.31,	2.777662e-12,	3118.16,	1.603528e-10,	3118.09,	2.85639e-09,	3118.02,	3.604508e-08,	3118.24,	5.338285e-10,	3118.39,	3.878293e-11,	3117.94,	7.616577e-10
992.863,	0.1246389,	1.306611e-06,	5,	3274.18,	2.757714e-12,	3274.03,	1.607248e-10,	3273.96,	2.880561e-09,	3273.88,	3.620525e-08,	3274.11,	5.459795e-10,	3274.26,	3.946168e-11,	3273.81,	7.692121e-10
1035.64,	0.1577503,	1.41952e-06,	5,	3430.05,	2.885271e-12,	3429.9,	1.60727e-10,	3429.83,	2.896297e-09,	3429.75,	3.647258e-08,	3429.98,	1.146272e-10,	3430.13,	3.650496e-11,	3429.68,	7.850798e-10
1078.41,	0.1933296,	1.321105e-06,	5,	3585.92,	2.924633e-12,	3585.77,	1.591152e-10,	3585.7,	2.877048e-09,	3585.62,	3.651261e-08,	3585.85,	1.08557e-10,	3586,	3.673236e-11,	3585.55,	7.848537e-10
1121.2,	0.2282747,	1.357726e-06,	5,	3741.79,	2.752902e-12,	3741.64,	1.610058e-10,	3741.57,	2.820824e-09,	3741.49,	3.543577e-08,	3741.72,	6.731437e-10,	3741.87,	3.93599e-11,	3741.42,	7.515177e-10
1163.81,	0.2572256,	1.368025e-06,	5,	3897.66,	2.832997e-12,	3897.51,	1.588775e-10,	3897.44,	2.800755e-09,	3897.36,	3.526845e-08,	3897.59,	6.813349e-10,	3897.74,	3.916078e-11,	3897.29,	7.526606e-10
1206.45,	0.2805606,	1.363066e-06,	5,	4053.53,	2.784929e-12,	4053.38,	1.575716e-10,	4053.31,	2.836904e-09,	4053.23,	3.585233e-08,	4053.46,	1.158284e-10,	4053.61,	3.65319e-11,	4053.16,	7.653843e-10
1249.44,	0.8915139,	0.001001802,	5,	4209.4,	2.896991e-12,	4209.25,	1.558622e-10,	4209.18,	2.812975e-09,	4209.1,	3.56486e-08,	4209.33,	1.069726e-10,	4209.47,	3.668342e-11,	4209.03,	7.642247e-10
1291.95,	1.048738,	0.001002119,	5,	4365.27,	2.860857e-12,	4365.12,	1.555285e-10,	4365.05,	2.826201e-09,	4364.97,	3.571042e-08,	4365.2,	1.059248e-10,	4365.35,	3.597047e-11,	4364.9,	7.604278e-10
1335.12,	1.162181,	0.001001882,	5,	4521.14,	1.883578e-10,	4520.99,	7.514327e-09,	4520.92,	2.820386e-09,	4520.84,	3.393333e-08,	4521.07,	3.066332e-09,	4521.21,	9.605635e-11,	4520.77,	7.511846e-10
1377.91,	1.259437,	0.001001722,	5,	4677.01,	5.31995e-10,	4676.86,	5.462427e-08,	4676.79,	7.757965e-10,	4676.71,	6.024855e-12,	4676.94,	1.048379e-08,	4677.09,	6.997955e-11,	4676.64,	5.031934e-10
1420.84,	1.351134,	0.001001916,	5,	,	,	,	,	,	,	,	,	,	,	,	,	,
1463.86,	1.437459,	0.001001924,	5,	,	,	,	,	,	,	,	,	,	,	,	,	,
1506.95,	1.496324,	0.001001977,	5,	,	,	,	,	,	,	,	,	,	,	,	,	,
1549.89,	1.255829,	1.391293e-06,	5,	,	,	,	,	,	,	,	,	,	,	,	,	,
1592.89,	1.205079,	1.348189e-06,	5,	,	,	,	,	,	,	,	,	,	,	,	,	,
1635.88,	1.179081,	1.135719e-06,	5,	,	,	,	,	,	,	,	,	,	,	,	,	,
1678.74,	1.162225,	1.116265e-06,	5,	,	,	,	,	,	,	,	,	,	,	,	,	,
1721.58,	1.149969,	1.15708e-06,	5,	,	,	,	,	,	,	,	,	,	,	,	,	,
1764.15,	1.140323,	1.218494e-06,	5,	,	,	,	,	,	,	,	,	,	,	,	,	,
1806.95,	1.132533,	1.092614e-06,	5,	,	,	,	,	,	,	,	,	,	,	,	,	,
1849.7,	1.609784,	0.005000819,	5,	,	,	,	,	,	,	,	,	,	,	,	,	,
1892.76,	1.626655,	0.005001429,	5,	,	,	,	,	,	,	,	,	,	,	,	,	,
1935.63,	1.636221,	0.005001352,	5,	,	,	,	,	,	,	,	,	,	,	,	,	,
1978.63,	1.643056,	0.005001162,	5,	,	,	,	,	,	,	,	,	,	,	,	,	,
2021.3,	1.648374,	0.005001429,	5,	,	,	,	,	,	,	,	,	,	,	,	,	,
2063.9,	1.652702,	0.005001124,	5,	,	,	,	,	,	,	,	,	,	,	,	,	,
2106.53,	1.656232,	0.005001162,	5,	,	,	,	,	,	,	,	,	,	,	,	,	,
2149.4,	1.442252,	1.312714e-06,	5,	,	,	,	,	,	,	,	,	,	,	,	,	,
2192.1,	1.402127,	1.373365e-06,	5,	,	,	,	,	,	,	,	,	,	,	,	,	,
2234.99,	1.375437,	1.236422e-06,	5,	,	,	,	,	,	,	,	,	,	,	,	,	,
2277.62,	1.354345,	1.324539e-06,	5,	,	,	,	,	,	,	,	,	,	,	,	,	,
2320.55,	1.336645,	1.278001e-06,	5,	,	,	,	,	,	,	,	,	,	,	,	,	,
2363.59,	1.321104,	9.461359e-07,	5,	,	,	,	,	,	,	,	,	,	,	,	,	,
2406.33,	1.305945,	9.903846e-07,	5,	,	,	,	,	,	,	,	,	,	,	,	,	,
2448.97,	1.68163,	0.0100023,	5,	,	,	,	,	,	,	,	,	,	,	,	,	,
2492.11,	1.689665,	0.01000272,	5,	,	,	,	,	,	,	,	,	,	,	,	,	,
2534.89,	1.694994,	0.01000234,	5,	,	,	,	,	,	,	,	,	,	,	,	,	,
2577.6,	1.699223,	0.0100026,	5,	,	,	,	,	,	,	,	,	,	,	,	,	,
2620.54,	1.7027,	0.01000215,	5,	,	,	,	,	,	,	,	,	,	,	,	,	,
2663.4,	1.705722,	0.01000211,	5,	,	,	,	,	,	,	,	,	,	,	,	,	,
2706.45,	1.708262,	0.01000241,	5,	,	,	,	,	,	,	,	,	,	,	,	,	,
2749.17,	1.475761,	1.231845e-06,	5,	,	,	,	,	,	,	,	,	,	,	,	,	,
2791.86,	1.442382,	1.460336e-06,	5,	,	,	,	,	,	,	,	,	,	,	,	,	,
2834.52,	1.420617,	1.258165e-06,	5,	,	,	,	,	,	,	,	,	,	,	,	,	,
2877.5,	1.40351,	1.274186e-06,	5,	,	,	,	,	,	,	,	,	,	,	,	,	,
2920.42,	1.388572,	1.100625e-06,	5,	,	,	,	,	,	,	,	,	,	,	,	,	,
2963.17,	1.375495,	1.365735e-06,	5,	,	,	,	,	,	,	,	,	,	,	,	,	,
3006.12,	1.363824,	1.319198e-06,	5,	,	,	,	,	,	,	,	,	,	,	,	,	,
3049.12,	1.720014,	0.01500275,	5,	,	,	,	,	,	,	,	,	,	,	,	,	,
3091.81,	1.726211,	0.01500313,	5,	,	,	,	,	,	,	,	,	,	,	,	,	,
3134.65,	1.730325,	0.01500286,	5,	,	,	,	,	,	,	,	,	,	,	,	,	,
3177.16,	1.733618,	0.01500313,	5,	,	,	,	,	,	,	,	,	,	,	,	,	,
3219.67,	1.736377,	0.01500271,	5,	,	,	,	,	,	,	,	,	,	,	,	,	,
3262.64,	1.738787,	0.01500271,	5,	,	,	,	,	,	,	,	,	,	,	,	,	,
3305.25,	1.741049,	0.01500248,	5,	,	,	,	,	,	,	,	,	,	,	,	,	,
3348.06,	1.494099,	1.22002e-06,	5,	,	,	,	,	,	,	,	,	,	,	,	,	,
3390.76,	1.462516,	1.280671e-06,	5,	,	,	,	,	,	,	,	,	,	,	,	,	,
3433.51,	1.442543,	1.312714e-06,	5,	,	,	,	,	,	,	,	,	,	,	,	,	,
3476.02,	1.42749,	1.257784e-06,	5,	,	,	,	,	,	,	,	,	,	,	,	,	,
3519.01,	1.414677,	1.191411e-06,	5,	,	,	,	,	,	,	,	,	,	,	,	,	,
3562.17,	1.403315,	1.166235e-06,	5,	,	,	,	,	,	,	,	,	,	,	,	,	,
3604.94,	1.393275,	1.244433e-06,	5,	,	,	,	,	,	,	,	,	,	,	,	,	,
3647.58,	1.746692,	0.02000278,	5,	,	,	,	,	,	,	,	,	,	,	,	,	,
3690.38,	1.752162,	0.02000331,	5,	,	,	,	,	,	,	,	,	,	,	,	,	,
3733.31,	1.755673,	0.02000308,	5,	,	,	,	,	,	,	,	,	,	,	,	,	,
3775.99,	1.758596,	0.02000282,	5,	,	,	,	,	,	,	,	,	,	,	,	,	,
3818.95,	1.760923,	0.02000282,	5,	,	,	,	,	,	,	,	,	,	,	,	,	,
3862,	1.762967,	0.02000316,	5,	,	,	,	,	,	,	,	,	,	,	,	,	,
3904.69,	1.764926,	0.02000285,	5,	,	,	,	,	,	,	,	,	,	,	,	,	,
3947.54,	1.505976,	1.223835e-06,	5,	,	,	,	,	,	,	,	,	,	,	,	,	,
3990.33,	1.475421,	1.366117e-06,	5,	,	,	,	,	,	,	,	,	,	,	,	,	,
4033.11,	1.456667,	1.204381e-06,	5,	,	,	,	,	,	,	,	,	,	,	,	,	,
4076.2,	1.442397,	1.310806e-06,	5,	,	,	,	,	,	,	,	,	,	,	,	,	,
4119.21,	1.430627,	1.366499e-06,	5,	,	,	,	,	,	,	,	,	,	,	,	,	,
4162.22,	1.420488,	1.282197e-06,	5,	,	,	,	,	,	,	,	,	,	,	,	,	,
4205.22,	1.411555,	1.463007e-06,	5,	,	,	,	,	,	,	,	,	,	,	,	,	,
4210.52,	1.410604,	1.656404e-06,	5,	,	,	,	,	,	,	,	,	,	,	,	,	,